time	umeeg101_rel_ROI1_FC1	umeeg101_rel_ROI1_Cz	umeeg101_rel_ROI1_FC2	umeeg101_rel_ROI2_CP1	umeeg101_rel_ROI2_Pz	umeeg101_rel_ROI2_CP2	umeeg101_irr_ROI1_FC1	umeeg101_irr_ROI1_Cz	umeeg101_irr_ROI1_FC2	umeeg101_irr_ROI2_CP1	umeeg101_irr_ROI2_Pz	umeeg101_irr_ROI2_CP2	umeeg101_odd_ROI1_FC1	umeeg101_odd_ROI1_Cz	umeeg101_odd_ROI1_FC2	umeeg101_odd_ROI2_CP1	umeeg101_odd_ROI2_Pz	umeeg101_odd_ROI2_CP2	umeeg102_rel_ROI1_FC1	umeeg102_rel_ROI1_Cz	umeeg102_rel_ROI1_FC2	umeeg102_rel_ROI2_CP1	umeeg102_rel_ROI2_Pz	umeeg102_rel_ROI2_CP2	umeeg102_irr_ROI1_FC1	umeeg102_irr_ROI1_Cz	umeeg102_irr_ROI1_FC2	umeeg102_irr_ROI2_CP1	umeeg102_irr_ROI2_Pz	umeeg102_irr_ROI2_CP2	umeeg102_odd_ROI1_FC1	umeeg102_odd_ROI1_Cz	umeeg102_odd_ROI1_FC2	umeeg102_odd_ROI2_CP1	umeeg102_odd_ROI2_Pz	umeeg102_odd_ROI2_CP2	umeeg103_rel_ROI1_FC1	umeeg103_rel_ROI1_Cz	umeeg103_rel_ROI1_FC2	umeeg103_rel_ROI2_CP1	umeeg103_rel_ROI2_Pz	umeeg103_rel_ROI2_CP2	umeeg103_irr_ROI1_FC1	umeeg103_irr_ROI1_Cz	umeeg103_irr_ROI1_FC2	umeeg103_irr_ROI2_CP1	umeeg103_irr_ROI2_Pz	umeeg103_irr_ROI2_CP2	umeeg103_odd_ROI1_FC1	umeeg103_odd_ROI1_Cz	umeeg103_odd_ROI1_FC2	umeeg103_odd_ROI2_CP1	umeeg103_odd_ROI2_Pz	umeeg103_odd_ROI2_CP2	umeeg104_rel_ROI1_FC1	umeeg104_rel_ROI1_Cz	umeeg104_rel_ROI1_FC2	umeeg104_rel_ROI2_CP1	umeeg104_rel_ROI2_Pz	umeeg104_rel_ROI2_CP2	umeeg104_irr_ROI1_FC1	umeeg104_irr_ROI1_Cz	umeeg104_irr_ROI1_FC2	umeeg104_irr_ROI2_CP1	umeeg104_irr_ROI2_Pz	umeeg104_irr_ROI2_CP2	umeeg104_odd_ROI1_FC1	umeeg104_odd_ROI1_Cz	umeeg104_odd_ROI1_FC2	umeeg104_odd_ROI2_CP1	umeeg104_odd_ROI2_Pz	umeeg104_odd_ROI2_CP2	umeeg105_rel_ROI1_FC1	umeeg105_rel_ROI1_Cz	umeeg105_rel_ROI1_FC2	umeeg105_rel_ROI2_CP1	umeeg105_rel_ROI2_Pz	umeeg105_rel_ROI2_CP2	umeeg105_irr_ROI1_FC1	umeeg105_irr_ROI1_Cz	umeeg105_irr_ROI1_FC2	umeeg105_irr_ROI2_CP1	umeeg105_irr_ROI2_Pz	umeeg105_irr_ROI2_CP2	umeeg105_odd_ROI1_FC1	umeeg105_odd_ROI1_Cz	umeeg105_odd_ROI1_FC2	umeeg105_odd_ROI2_CP1	umeeg105_odd_ROI2_Pz	umeeg105_odd_ROI2_CP2	umeeg106_rel_ROI1_FC1	umeeg106_rel_ROI1_Cz	umeeg106_rel_ROI1_FC2	umeeg106_rel_ROI2_CP1	umeeg106_rel_ROI2_Pz	umeeg106_rel_ROI2_CP2	umeeg106_irr_ROI1_FC1	umeeg106_irr_ROI1_Cz	umeeg106_irr_ROI1_FC2	umeeg106_irr_ROI2_CP1	umeeg106_irr_ROI2_Pz	umeeg106_irr_ROI2_CP2	umeeg106_odd_ROI1_FC1	umeeg106_odd_ROI1_Cz	umeeg106_odd_ROI1_FC2	umeeg106_odd_ROI2_CP1	umeeg106_odd_ROI2_Pz	umeeg106_odd_ROI2_CP2	umeeg107_rel_ROI1_FC1	umeeg107_rel_ROI1_Cz	umeeg107_rel_ROI1_FC2	umeeg107_rel_ROI2_CP1	umeeg107_rel_ROI2_Pz	umeeg107_rel_ROI2_CP2	umeeg107_irr_ROI1_FC1	umeeg107_irr_ROI1_Cz	umeeg107_irr_ROI1_FC2	umeeg107_irr_ROI2_CP1	umeeg107_irr_ROI2_Pz	umeeg107_irr_ROI2_CP2	umeeg107_odd_ROI1_FC1	umeeg107_odd_ROI1_Cz	umeeg107_odd_ROI1_FC2	umeeg107_odd_ROI2_CP1	umeeg107_odd_ROI2_Pz	umeeg107_odd_ROI2_CP2
-199.21875	-0.02239976	-0.1553852	-0.1684579	-0.1817473	-0.2450098	-0.1938744	0.1910983	0.2146327	0.1924305	0.1139864	0.1023374	0.09506803	-0.760463	-0.7895453	-0.6375352	-0.8279154	-0.7043512	-0.5918292	-0.7123702	-0.933714	-0.5373743	-0.8144967	-0.2283264	-0.3824732	-0.5401368	-0.5918474	-0.4228253	-0.5204429	-0.06116165	-0.3419373	-1.286844	-1.000228	-1.393302	-0.136872	0.6318538	-0.1796489	0.4978363	0.307679	0.2734338	0.2239617	-0.04791612	0.08571744	0.4103477	0.2756784	0.3174548	0.07005703	-0.0985058	0.05582744	0.8637995	0.7773808	0.8190902	0.7160602	0.728093	0.7226756	-0.2277592	-0.1499252	-0.2385286	0.2195162	0.3299991	0.02959317	-0.2329032	-0.1678569	-0.1042716	-0.01267545	0.1106107	0.04979645	-0.05863003	0.1483755	-0.1081041	0.6267667	0.3888675	-0.3157842	-0.7570655	-0.3003666	-0.47319	0.1440639	0.9845419	0.6915222	-0.5070239	-0.5850613	-0.5067546	-0.2596335	-0.01689405	-0.167734	-1.160529	-0.8704855	-1.138483	-0.5978923	0.6118999	-0.2939914	0.1751686	-0.07749924	0.2111641	-0.3327078	-0.7230645	-0.1008573	-0.2131354	-0.03164222	-0.004839241	-0.05490373	-0.05645249	0.04396842	-0.4231039	-0.9504553	-0.648158	0.2122897	-0.2941318	-0.7054774	-0.2709641	-0.1862261	-0.1572507	-0.1293413	-0.05964914	-0.07012433	-0.3678402	-0.3688229	-0.242411	-0.3227267	-0.3954156	-0.1651549	-0.6914234	-1.14964	-0.4968447	-1.335715	-1.24592	-0.602357
-197.265625	-0.02637417	-0.1970825	-0.190768	-0.1801374	-0.3043052	-0.2347997	0.1843624	0.1627844	0.1750549	0.1160113	0.09059212	0.07574242	-0.5095819	-0.7354558	-0.5453222	-0.7224366	-0.6584548	-0.619964	-0.6221142	-0.8804517	-0.4927526	-0.7745311	-0.2118232	-0.3485795	-0.4616114	-0.5538421	-0.396059	-0.4810778	-0.04850556	-0.3244168	-1.228926	-1.015013	-1.484004	-0.0996015	0.7648191	-0.08651359	0.4786654	0.252514	0.1844425	0.2127247	-0.04429281	0.0644158	0.3987255	0.2580999	0.2750767	0.0873486	-0.09013022	0.04236395	0.8922748	0.8311871	0.9061177	0.7127593	0.7487972	0.7388848	-0.2085035	-0.1086125	-0.1943083	0.2026885	0.3045707	0.08754315	-0.2338893	-0.1698478	-0.09752424	-0.02770431	0.09693552	0.04007895	-0.1248083	0.01328095	-0.1405162	0.359648	0.2653886	-0.3569647	-0.7657737	-0.3575928	-0.4676179	0.1154176	0.9283338	0.6151456	-0.5002282	-0.5687603	-0.4923584	-0.2512926	0.004808005	-0.173107	-0.9294865	-0.7375505	-1.067512	-0.2382799	0.615154	-0.3144248	0.1390484	-0.04588183	0.2109136	-0.3366414	-0.6249087	-0.04604316	-0.1736916	0.0121498	0.02909433	-0.07214598	-0.0481971	0.05469196	-0.2897439	-0.9617027	-0.5826264	0.2064291	-0.4274457	-0.7878569	-0.2542079	-0.1369863	-0.1395886	-0.139046	-0.006844994	-0.1023807	-0.3537691	-0.3898121	-0.2554796	-0.3101956	-0.3617398	-0.1497147	-0.8096986	-1.104738	-0.5109496	-1.270603	-1.092437	-0.5398236
-195.3125	-0.03159799	-0.173359	-0.2025723	-0.1433802	-0.3153716	-0.2310805	0.156067	0.1082314	0.1394542	0.09885383	0.08284093	0.05482407	-0.3265674	-0.6723548	-0.4540753	-0.5945352	-0.5658274	-0.618753	-0.6470971	-0.8369157	-0.4895138	-0.7293438	-0.1450491	-0.3045284	-0.3982262	-0.5069732	-0.3607967	-0.4360705	-0.03877525	-0.3108182	-1.12696	-0.9934672	-1.497427	-0.03277638	0.8778229	0.00646248	0.4379064	0.2110631	0.1210387	0.1893154	-0.01332745	0.06754804	0.3876799	0.2495068	0.2548168	0.1025574	-0.06556056	0.05367056	0.7041119	0.6320812	0.7446766	0.511018	0.6171911	0.6141959	-0.2040757	-0.1086415	-0.180076	0.1712091	0.2515188	0.1086353	-0.2301482	-0.1536843	-0.088169	-0.04600877	0.09074624	0.03724927	-0.1577011	-0.1265149	-0.190126	0.1743498	0.1554095	-0.3598348	-0.7820724	-0.4394656	-0.5044559	0.03352832	0.7947308	0.4914688	-0.4890579	-0.5490224	-0.4858108	-0.2235418	0.03317354	-0.158719	-0.6611997	-0.5692251	-0.9402716	0.08894612	0.6078404	-0.3358399	0.1020612	-0.01280303	0.2283423	-0.3065172	-0.4687155	0.02845198	-0.1324599	0.03635169	0.04179781	-0.07902744	-0.05400853	0.02915799	-0.2790173	-1.036907	-0.6276845	0.1582041	-0.5114112	-0.8626112	-0.1999803	-0.07894652	-0.1307693	-0.1595935	-0.02007105	-0.1752428	-0.334511	-0.38911	-0.2736199	-0.2996982	-0.3162166	-0.1161953	-0.8612528	-1.036184	-0.5306846	-1.159987	-0.8137645	-0.4874169
-193.359375	-0.03967582	-0.1072386	-0.2028622	-0.1067142	-0.3049607	-0.1912243	0.1066408	0.06123343	0.08809914	0.07133622	0.07954297	0.03772872	-0.2770782	-0.5991915	-0.3830642	-0.5271564	-0.4730147	-0.5764921	-0.7163653	-0.7830735	-0.486667	-0.6792976	-0.05947013	-0.2325807	-0.3605426	-0.4624584	-0.3227789	-0.4001843	-0.03244358	-0.2974412	-1.05683	-0.9602423	-1.489948	0.06328363	0.9412496	0.08519968	0.3935289	0.2126611	0.1147572	0.1874429	0.05175013	0.1166549	0.3646995	0.2303311	0.2419284	0.09892425	-0.04086319	0.07324218	0.4943924	0.4180057	0.5711446	0.2847569	0.4723784	0.5080475	-0.2097523	-0.1252277	-0.1951736	0.1478996	0.2102681	0.09549261	-0.2130165	-0.1251399	-0.0739316	-0.0654387	0.07846895	0.03671256	-0.1559767	-0.2134361	-0.2550727	0.1814474	0.1232874	-0.3174307	-0.7984726	-0.5341808	-0.5726989	-0.06946735	0.6263729	0.3352852	-0.4840065	-0.5421566	-0.4938771	-0.1948936	0.05248462	-0.133734	-0.497013	-0.4432907	-0.7458983	0.1339703	0.5374879	-0.3749317	0.06089482	-0.01252063	0.230503	-0.2537983	-0.281014	0.1025442	-0.09131734	0.03374159	0.03264061	-0.07668775	-0.06834417	-0.02005086	-0.3764738	-1.134547	-0.755212	0.07611716	-0.4844039	-0.8804228	-0.09185033	0.04800046	-0.08533762	-0.1322989	-0.05037688	-0.2057788	-0.3127896	-0.3647085	-0.2933943	-0.2793955	-0.259264	-0.07796338	-1.048522	-1.194981	-0.7600966	-1.115295	-0.5448704	-0.5501264
-191.40625	-0.04766687	-0.0468834	-0.1932238	-0.09707927	-0.3037634	-0.1431668	0.05099221	0.02669379	0.03510759	0.04969776	0.07648971	0.02587042	-0.3275899	-0.5318156	-0.3356548	-0.5530607	-0.4140434	-0.5126657	-0.7413958	-0.7047299	-0.4578367	-0.6231381	0.01480527	-0.1426561	-0.33692	-0.4296914	-0.289682	-0.3814552	-0.03248858	-0.2840069	-1.072766	-0.9453356	-1.508696	0.1641089	0.9419703	0.1400626	0.3454929	0.2341435	0.1400178	0.2077819	0.1257951	0.1839134	0.3257357	0.1883232	0.2172489	0.07088574	-0.03531082	0.0772218	0.4822653	0.4421169	0.6282585	0.2329263	0.4587869	0.5657771	-0.2028457	-0.1043707	-0.2035657	0.144158	0.2039758	0.08663169	-0.1832332	-0.09060663	-0.05615246	-0.07938768	0.06156314	0.03972477	-0.1782833	-0.2475101	-0.3386677	0.3202218	0.2025049	-0.2540272	-0.7980532	-0.614188	-0.6377866	-0.1372866	0.4923069	0.1869881	-0.4868864	-0.551626	-0.5133129	-0.1777343	0.0565462	-0.1194967	-0.4610678	-0.3764721	-0.4930107	-0.1023532	0.3861206	-0.4167859	0.05756252	0.02342237	0.2609619	-0.1801159	-0.09617361	0.2006724	-0.05427313	0.01136623	0.01281083	-0.06893142	-0.08193167	-0.06322119	-0.4792075	-1.179548	-0.8295618	-0.008885412	-0.3860544	-0.8337774	0.003194821	0.170101	-0.04762221	-0.06387282	-0.05758591	-0.1878959	-0.3081926	-0.3588882	-0.3285721	-0.2570488	-0.2129376	-0.07125077	-1.232672	-1.2947	-0.9683835	-1.05523	-0.3315848	-0.5696225
-189.453125	-0.04029706	-0.02704495	-0.1744747	-0.1042247	-0.3249114	-0.1123551	0.01313387	0.006208088	-0.003436348	0.04693924	0.06731836	0.01445088	-0.3378104	-0.4548657	-0.2724197	-0.6007897	-0.3934167	-0.4479116	-0.6947926	-0.6299643	-0.4113191	-0.578558	0.04260859	-0.07985877	-0.3066455	-0.4094908	-0.2663919	-0.3732884	-0.03843906	-0.2724043	-1.162151	-0.9504853	-1.544092	0.2317047	0.8970193	0.165355	0.2826875	0.2338923	0.1456271	0.2272366	0.1801804	0.2288553	0.2703089	0.1239851	0.1674443	0.03104721	-0.04805052	0.05514081	0.6994565	0.7011859	0.9056636	0.3722546	0.5512718	0.7410694	-0.1695973	-0.0204988	-0.1766805	0.1531667	0.2211709	0.1097017	-0.1489312	-0.05823334	-0.03808201	-0.08488312	0.0453104	0.04487397	-0.2420251	-0.2568868	-0.4074931	0.446125	0.3257838	-0.2181143	-0.770714	-0.6521648	-0.6772308	-0.1210612	0.448291	0.08637715	-0.4942884	-0.5704353	-0.5388527	-0.1729802	0.05362102	-0.1345474	-0.4960583	-0.3766153	-0.2595358	-0.4462056	0.1651652	-0.4540847	0.03580718	0.006474084	0.246107	-0.1390797	0.02235204	0.2586033	-0.02891974	-0.0174829	-0.003875203	-0.05972567	-0.08634658	-0.07916174	-0.5023266	-1.138682	-0.7343058	-0.05908557	-0.308799	-0.76371	-0.0681444	0.04030689	-0.189543	-0.05652227	-0.07703642	-0.2496327	-0.3198669	-0.3842626	-0.3660456	-0.2451328	-0.1937017	-0.1032732	-1.500961	-1.489878	-1.221797	-1.057139	-0.3138173	-0.6476201
-187.5	-0.03485348	-0.06367718	-0.1549436	-0.1182545	-0.3587077	-0.1068135	0.0009855758	-0.006624342	-0.02426632	0.05959671	0.05041593	-0.002784009	-0.2155491	-0.3536212	-0.1707034	-0.5738306	-0.3733685	-0.387838	-0.6078068	-0.5867084	-0.3722786	-0.5572264	0.01431698	-0.07874564	-0.2553172	-0.388032	-0.2485714	-0.357075	-0.04197622	-0.256437	-1.276098	-0.970533	-1.551557	0.2226395	0.8317571	0.1537668	0.2120523	0.1982418	0.1116867	0.2238474	0.2038295	0.2377211	0.2164351	0.06458491	0.1096343	0.00443222	-0.06416358	0.02135074	0.9811078	0.9829428	1.169074	0.5593084	0.6006639	0.8614819	-0.1305827	0.0919573	-0.1281201	0.154499	0.2420978	0.1624345	-0.1245514	-0.03718507	-0.02718756	-0.08340248	0.04250468	0.04986588	-0.3340325	-0.2746055	-0.4275979	0.4238269	0.4004696	-0.2245286	-0.7242619	-0.641236	-0.6898911	-0.02582842	0.4952772	0.04469442	-0.4927711	-0.576268	-0.5583867	-0.1581738	0.06230757	-0.171068	-0.5145442	-0.4384374	-0.1373514	-0.6972462	-0.1037623	-0.4962502	-0.004042261	-0.05423935	0.1920239	-0.129555	0.07296186	0.2648247	-0.001452934	-0.01049159	0.01823923	-0.04011522	-0.0732739	-0.05518411	-0.4480683	-1.045056	-0.4953018	-0.05712639	-0.3189819	-0.7241933	-0.09341837	-0.01693533	-0.2539128	-0.01914105	-0.02513278	-0.2446281	-0.2208428	-0.243373	-0.2482274	-0.184846	-0.1484032	-0.05796045	-1.932712	-2.003161	-1.647175	-1.189684	-0.5451503	-0.9400382
-185.546875	-0.04356306	-0.1280792	-0.139178	-0.11481	-0.3815845	-0.1140736	-0.007423964	-0.02940446	-0.04125284	0.06027351	0.0262271	-0.03007723	-0.02271213	-0.255643	-0.07222035	-0.4450302	-0.3068254	-0.3386264	-0.5316451	-0.5724158	-0.3522452	-0.547486	-0.04804292	-0.1258992	-0.1889368	-0.3528349	-0.2268629	-0.3223521	-0.03716815	-0.2290628	-1.356093	-0.9821061	-1.49633	0.1383062	0.7851802	0.1173855	0.1447123	0.1483288	0.05826915	0.1980196	0.212744	0.2329562	0.1814432	0.0375244	0.07055065	0.006905863	-0.0685319	0.000123493	1.097039	1.018323	1.146465	0.60387	0.4744861	0.76569	-0.1024574	0.1703961	-0.09235453	0.1528882	0.2444409	0.2069706	-0.1152177	-0.03128695	-0.02681168	-0.07602316	0.05381182	0.04872186	-0.3887101	-0.2929567	-0.3755277	0.2615835	0.3603155	-0.2614277	-0.6837051	-0.6057702	-0.6962202	0.09241667	0.5784702	0.03563141	-0.4843812	-0.5636763	-0.5665931	-0.1278071	0.09110489	-0.2066713	-0.5018147	-0.5603029	-0.1733986	-0.7981348	-0.3892004	-0.55567	-0.05413733	-0.1419178	0.1030861	-0.1236509	0.09856626	0.225648	0.02620067	0.03439539	0.07653525	-0.01454284	-0.04831178	-0.01161329	-0.2871157	-0.8301747	-0.1418403	0.008888843	-0.4049832	-0.6751031	-0.04746902	0.02064212	-0.2250824	0.03519674	0.0579798	-0.202958	-0.2406716	-0.3158917	-0.2817462	-0.218665	-0.1781511	-0.1392334	-1.731485	-1.591816	-1.302932	-0.9734428	-0.5514919	-0.7505165
-183.59375	-0.08080643	-0.1866229	-0.136811	-0.09831792	-0.3864736	-0.1288995	-0.02698397	-0.06460892	-0.06382015	0.03748893	-0.001194783	-0.05982201	0.1427722	-0.1702464	-0.009960069	-0.2510072	-0.1921383	-0.2878139	-0.4974555	-0.5557413	-0.3403138	-0.5197334	-0.1026445	-0.1642471	-0.1287693	-0.3033035	-0.1961216	-0.2763681	-0.0248039	-0.1877462	-1.3576	-0.9445543	-1.366964	0.0382905	0.7859618	0.09575573	0.1114835	0.1318743	0.04190733	0.1717499	0.2206939	0.2472489	0.1693196	0.04820416	0.06349634	0.03312749	-0.05860021	0.004253997	0.9196571	0.7270684	0.7650831	0.4513734	0.2171933	0.4762084	-0.08900639	0.1775121	-0.09205464	0.1661199	0.2278928	0.2101851	-0.1137352	-0.03410167	-0.03281335	-0.06056219	0.07230892	0.04191414	-0.3531718	-0.2707764	-0.2668145	0.07999879	0.2342913	-0.2924871	-0.668937	-0.5812335	-0.7126645	0.1728482	0.6309252	0.02083741	-0.4778387	-0.5388527	-0.5638859	-0.08481225	0.1353385	-0.2156013	-0.4936057	-0.712962	-0.3107351	-0.8200437	-0.6616793	-0.6272178	-0.1122421	-0.2630795	-0.03036021	-0.1015186	0.142385	0.1478121	0.03111691	0.05926547	0.1234724	-0.01005673	-0.03032485	0.00905329	-0.2002687	-0.7432853	0.009801855	0.008035977	-0.5603886	-0.7054925	-0.1511535	-0.2001348	-0.3902128	-0.0205725	0.02551778	-0.3395099	-0.2855634	-0.4415605	-0.3685957	-0.2771526	-0.2217155	-0.2540294	-1.794529	-1.715857	-1.349572	-0.9251251	-0.6447045	-0.8587575
-181.640625	-0.09309973	-0.1688671	-0.1216837	-0.04229833	-0.361248	-0.1306697	-0.06430732	-0.1078035	-0.09065273	-0.008497346	-0.03116078	-0.08283362	0.1870899	-0.1169831	0.0005626598	-0.08469114	-0.06658538	-0.2286248	-0.4927039	-0.4974349	-0.3179496	-0.4438875	-0.1033147	-0.1347919	-0.09765164	-0.255071	-0.1629988	-0.2387404	-0.01158346	-0.140188	-1.280571	-0.8321985	-1.177128	-0.009091157	0.8227156	0.1256258	0.08842808	0.1436179	0.06240356	0.156775	0.2299715	0.2778728	0.1653194	0.07182381	0.07462461	0.05865136	-0.04748549	0.02189344	0.5908005	0.3247743	0.2823017	0.216434	-0.01841147	0.1912423	-0.08364149	0.1260774	-0.1185073	0.2011367	0.2144955	0.1738134	-0.104715	-0.0319934	-0.03517089	-0.03339491	0.08652836	0.03534436	-0.2417112	-0.1963304	-0.1556569	-0.00807866	0.1113273	-0.3021064	-0.6855899	-0.5969459	-0.7411289	0.1775601	0.6080557	-0.02795792	-0.4827533	-0.5167736	-0.5545806	-0.04314822	0.1788756	-0.1897367	-0.5359101	-0.8436645	-0.426953	-0.8672866	-0.8768626	-0.673816	-0.1466716	-0.3629799	-0.166358	-0.03816475	0.231733	0.07364374	0.03170771	0.07254171	0.1606094	-0.02560256	-0.01869695	0.01632622	-0.1228371	-0.6874369	0.02736947	-0.07424079	-0.7235768	-0.7273489	-0.1179481	-0.1689098	-0.3666684	0.006895943	0.02512828	-0.346758	-0.1515505	-0.272698	-0.2537633	-0.21603	-0.1694325	-0.2055308	-1.712706	-1.630926	-1.257432	-0.7831306	-0.5710801	-0.8133642
-179.6875	-0.05658558	-0.07270269	-0.08989832	0.03356878	-0.3206484	-0.1292642	-0.1056682	-0.146569	-0.1108707	-0.06155631	-0.06678643	-0.09598421	0.09052739	-0.1325607	-0.03553382	-0.03899996	-0.00589281	-0.1852353	-0.4869758	-0.3944755	-0.2826244	-0.3237029	-0.03516946	-0.02995533	-0.1039844	-0.2263099	-0.1416489	-0.2227242	-0.001817116	-0.09931528	-1.160868	-0.6529202	-0.9459646	0.01650722	0.8395797	0.2113289	0.06220464	0.164891	0.1008083	0.1520205	0.2185258	0.2970333	0.1500848	0.07315551	0.07676558	0.05880694	-0.05180792	0.0267129	0.304364	0.08367587	-0.005701383	0.06148946	-0.09406412	0.1060089	-0.07888078	0.07017813	-0.1391631	0.2412487	0.2188486	0.1268509	-0.07952174	-0.01601294	-0.02746846	0.00431853	0.09252795	0.0379052	-0.1222072	-0.1028117	-0.09642658	0.01370054	0.05544474	-0.3071642	-0.7094854	-0.6406085	-0.7625487	0.1308272	0.5238965	-0.1022251	-0.4997897	-0.506699	-0.5454736	-0.01071717	0.2111044	-0.1401457	-0.6279429	-0.9080603	-0.4278996	-0.9698256	-0.9954812	-0.658291	-0.1912075	-0.4722319	-0.319086	0.03789816	0.3397304	-0.002780153	0.01884587	0.05297073	0.1637309	-0.06039928	-0.008646553	0.01633233	-0.09054048	-0.705089	-0.043957	-0.2492891	-0.8618882	-0.7262735	-0.1720928	-0.2329674	-0.4224975	0.004131383	-0.01176799	-0.3810543	-0.1622971	-0.3263706	-0.325545	-0.2109769	-0.1695851	-0.2741666	-1.543575	-1.370096	-1.066413	-0.5875977	-0.3930317	-0.6153709
-177.734375	0.03441346	0.07233542	-0.03538683	0.1030578	-0.2723606	-0.1223407	-0.1297606	-0.1680374	-0.1092962	-0.1057678	-0.1118033	-0.1025651	-0.07199528	-0.208804	-0.0699812	-0.1193365	-0.02756164	-0.160823	-0.4649955	-0.2896034	-0.2517557	-0.2028301	0.07211878	0.09791104	-0.1383691	-0.2233475	-0.1430107	-0.2224791	0.007143365	-0.07214344	-1.050656	-0.4577002	-0.7001951	0.06426646	0.7715907	0.3098558	0.00127887	0.1553182	0.1054666	0.1397145	0.1731712	0.2744932	0.1224718	0.03899903	0.05906751	0.0288677	-0.07521714	0.00306908	0.1956089	0.1191557	0.01618515	0.06123339	-0.01681308	0.2433781	-0.08741716	0.05048215	-0.135407	0.2518293	0.2379828	0.1001886	-0.0484231	0.007772496	-0.01635495	0.04308845	0.09820203	0.05384837	-0.08676206	-0.06652371	-0.1174629	0.04869872	0.06632733	-0.325944	-0.7054831	-0.6735129	-0.7557106	0.08743902	0.425297	-0.1773732	-0.5124539	-0.4985893	-0.5387429	0.02529292	0.2338868	-0.0846519	-0.7063057	-0.8849315	-0.3186068	-1.045831	-1.001096	-0.5684575	-0.2231568	-0.535382	-0.4166004	0.1171213	0.4360967	-0.05709955	0.002082586	0.02277768	0.1495003	-0.09019063	0.01595228	0.03045126	-0.0180356	-0.6052806	0.05788384	-0.405738	-0.9101478	-0.586789	-0.1934789	-0.2155239	-0.4180253	0.03574787	0.004580761	-0.3325628	-0.05562436	-0.1658808	-0.2292233	-0.1091521	-0.1042794	-0.2130251	-1.342481	-1.045599	-0.834799	-0.3957005	-0.22345	-0.3565393
-175.78125	0.1368933	0.2019027	0.03390537	0.123014	-0.231185	-0.10661	-0.1246949	-0.1669602	-0.08414933	-0.1349958	-0.1656298	-0.1087909	-0.2078365	-0.2989018	-0.07373192	-0.2327502	-0.06148478	-0.1330077	-0.4304415	-0.2279207	-0.2404721	-0.1290066	0.1663712	0.1850418	-0.1790446	-0.2320864	-0.1651519	-0.2156918	0.02413531	-0.05306801	-0.9887282	-0.3227526	-0.4813267	0.05446639	0.5937957	0.3559601	-0.08450539	0.1199855	0.07240421	0.110805	0.1004936	0.2206629	0.09020253	-0.01716047	0.02891078	-0.01528455	-0.1034918	-0.04090919	0.2615396	0.3423113	0.2240962	0.1607365	0.06037558	0.4493142	-0.130765	0.0619379	-0.1232441	0.2133241	0.2557428	0.09499935	-0.02738641	0.02289589	-0.01390273	0.07253825	0.1092944	0.07353744	-0.1593647	-0.1244498	-0.1878714	-0.002874981	0.07821214	-0.3615058	-0.6490583	-0.6512946	-0.7043536	0.09425239	0.361268	-0.2279198	-0.5089013	-0.4799274	-0.5320989	0.0716904	0.255375	-0.03612324	-0.7349412	-0.8242412	-0.2014011	-1.044119	-0.9243196	-0.443909	-0.2620325	-0.5851369	-0.4621875	0.1680817	0.4894802	-0.1123176	-0.0167709	0.0034566	0.1344295	-0.09177095	0.06519993	0.06448995	0.07567209	-0.4063712	0.3461654	-0.5008383	-0.8834052	-0.3466474	-0.3029562	-0.3597643	-0.5353522	0.01093483	0.01774581	-0.3540311	-0.09864948	-0.2313838	-0.2833871	-0.09221948	-0.1085469	-0.2641394	-1.279684	-1.008343	-0.8038499	-0.3252108	-0.209353	-0.2809423
-173.828125	0.1846131	0.2549918	0.09472058	0.06866575	-0.2024652	-0.07834799	-0.1034057	-0.1518413	-0.04897667	-0.1577823	-0.2220117	-0.1171831	-0.2561507	-0.3273692	-0.03439759	-0.272425	-0.01896494	-0.06185984	-0.4000623	-0.2227126	-0.248534	-0.1178212	0.2089062	0.2071493	-0.2105525	-0.2359712	-0.1953169	-0.1873315	0.04989078	-0.03220743	-0.9716781	-0.2905689	-0.3362724	-0.04487139	0.3571436	0.3230596	-0.1655791	0.09109675	0.03354032	0.0731001	0.03667589	0.1797464	0.06987787	-0.06305	0.01044956	-0.05135479	-0.1220409	-0.0808084	0.344752	0.5042651	0.3494505	0.2242286	0.001646047	0.5160435	-0.2174488	0.06380712	-0.1384903	0.1333864	0.2604403	0.08950496	-0.02956663	0.01290882	-0.03076351	0.08356877	0.1232185	0.08122621	-0.2905233	-0.246776	-0.2498548	-0.1652109	0.0365036	-0.3908502	-0.5491271	-0.5667949	-0.6129	0.1515979	0.3445232	-0.2520469	-0.4848444	-0.4423116	-0.5221502	0.1322438	0.2801228	0.003166352	-0.7432147	-0.8020368	-0.169134	-1.010068	-0.8109	-0.3309333	-0.2827739	-0.6121922	-0.4453339	0.1942059	0.5111667	-0.1633156	-0.03458703	0.01031651	0.1331674	-0.05833687	0.1319558	0.1091818	0.1337924	-0.2306868	0.6534656	-0.5914262	-0.8551069	-0.1270979	-0.2266414	-0.2433449	-0.4471288	0.07812375	0.1209735	-0.2464323	-0.07377654	-0.1800628	-0.2281202	-0.0540574	-0.08663132	-0.2424406	-1.320017	-1.252968	-0.9541562	-0.3489431	-0.3326806	-0.427874
-171.875	0.1594219	0.2308979	0.1391973	-0.03114443	-0.1839346	-0.03376402	-0.08974978	-0.1398002	-0.02564241	-0.1830567	-0.2736016	-0.1296152	-0.271715	-0.2934617	-0.008683999	-0.2183453	0.1375538	0.05200505	-0.3758988	-0.2359321	-0.2549816	-0.1341359	0.2047762	0.1990835	-0.2285711	-0.2258086	-0.2202591	-0.1409285	0.07864439	-0.004416777	-0.9420902	-0.3260918	-0.277692	-0.178307	0.15994	0.2470201	-0.2200878	0.09355586	0.02675248	0.03623323	0.009592479	0.1869782	0.06166665	-0.08313614	0.01167584	-0.06995278	-0.1277875	-0.100428	0.3701847	0.4926675	0.2855716	0.2044573	-0.1680311	0.3944706	-0.3112722	0.0247651	-0.192053	0.05679724	0.2420269	0.05736709	-0.05263232	-0.02131419	-0.06504548	0.07930611	0.1335086	0.07033564	-0.3966236	-0.3483937	-0.2654661	-0.3701002	-0.0421567	-0.3895804	-0.451186	-0.4596482	-0.503266	0.2111416	0.3601053	-0.2621758	-0.4570206	-0.3995368	-0.5090048	0.1846785	0.3007377	0.03294478	-0.7790855	-0.8437768	-0.2366006	-0.9935505	-0.6806602	-0.241824	-0.2627214	-0.6125603	-0.3950892	0.2120046	0.529413	-0.2018172	-0.04439485	0.03624966	0.1427614	-0.003489928	0.1977594	0.1456045	0.1203903	-0.2058667	0.7537153	-0.777355	-0.9208112	-0.06844968	-0.2524043	-0.3114069	-0.488946	0.07179224	0.1508282	-0.2712551	-0.0652227	-0.1662895	-0.1935858	-0.05586329	-0.08444833	-0.2422036	-1.034458	-1.057689	-0.7584874	-0.1907789	-0.3446402	-0.3982154
-169.921875	0.09037747	0.1705213	0.1583521	-0.1100424	-0.1641365	0.01781318	-0.09169112	-0.1346833	-0.02029154	-0.2050177	-0.3086134	-0.1373429	-0.3084883	-0.221433	-0.03270222	-0.1130151	0.3434615	0.1864584	-0.3528405	-0.2223273	-0.241767	-0.1275354	0.1870044	0.2153303	-0.2407758	-0.2095503	-0.233952	-0.09785067	0.09925582	0.02393598	-0.8478672	-0.3635307	-0.2768193	-0.2674623	0.06277957	0.1871399	-0.2405649	0.1184878	0.06035267	0.004281778	0.02106741	0.2358594	0.0525656	-0.08629975	0.02163192	-0.08027379	-0.1352936	-0.1045376	0.3185814	0.3602963	0.1254228	0.1431982	-0.2945446	0.2097862	-0.3630553	-0.04454886	-0.2575651	0.01679464	0.2060811	0.001278518	-0.08049163	-0.06164577	-0.1019699	0.07109024	0.134716	0.04943098	-0.4175019	-0.3612353	-0.2335851	-0.5379335	-0.1068711	-0.3621192	-0.3941128	-0.3781248	-0.4058565	0.2369059	0.3875899	-0.2694553	-0.4448033	-0.373685	-0.4977717	0.2076886	0.3065981	0.05163404	-0.8576931	-0.9087061	-0.3493389	-0.9794327	-0.5084009	-0.1497282	-0.2185347	-0.6189126	-0.3874872	0.2272138	0.559643	-0.2344556	-0.04620301	0.0549833	0.1425527	0.04201655	0.2383844	0.157134	0.1064986	-0.26174	0.6563528	-1.07751	-1.120398	-0.1674656	-0.2105945	-0.2264712	-0.4029318	0.1067091	0.1847029	-0.2279674	0.01636518	-0.05180762	-0.0886749	-0.03490958	-0.06220223	-0.1932968	-0.4249092	-0.3447842	-0.1803732	0.1652912	-0.1763598	-0.1170368
-167.96875	0.03324607	0.1272686	0.1519414	-0.1131515	-0.1354812	0.05940388	-0.1094463	-0.141232	-0.0320235	-0.2212871	-0.325501	-0.1408662	-0.3639693	-0.1410341	-0.09165899	-0.00897014	0.4862385	0.3093596	-0.320067	-0.1589262	-0.2089444	-0.06744872	0.1939329	0.2811003	-0.2577114	-0.2026494	-0.2400976	-0.07920089	0.1054867	0.04193893	-0.6526495	-0.3249885	-0.2530244	-0.2639737	0.05423105	0.1852929	-0.2537629	0.1220964	0.09563627	-0.03351587	0.04266442	0.2798119	0.02481089	-0.100985	0.01450647	-0.09835874	-0.1555588	-0.1123046	0.2864745	0.2797133	0.08614057	0.1249731	-0.2532306	0.1382297	-0.3421814	-0.1024498	-0.2873726	0.01387226	0.1568973	-0.05456029	-0.09756534	-0.08516351	-0.1260459	0.07010729	0.1319193	0.03699479	-0.3683579	-0.2903659	-0.196343	-0.6309391	-0.1043002	-0.3277342	-0.3858048	-0.3469602	-0.3394484	0.2202722	0.4126861	-0.2764459	-0.4556366	-0.3771034	-0.493941	0.1958847	0.294735	0.05849326	-0.9249489	-0.9109538	-0.4274414	-0.8614112	-0.2617595	-0.01188933	-0.1560668	-0.6112489	-0.4361001	0.251838	0.6094599	-0.2468661	-0.03352511	0.06031468	0.12593	0.06204348	0.2521044	0.1494738	0.03634354	-0.4663417	0.383446	-1.485155	-1.447586	-0.4112419	-0.3133141	-0.310613	-0.4336785	0.06085606	0.1447269	-0.2712233	0.04205463	-0.04157385	-0.07308172	-0.04920171	-0.0788131	-0.2069151	-0.4451518	-0.6160654	-0.3806192	0.1298885	-0.2660035	-0.3763617
-166.015625	0.009872784	0.1250492	0.1194247	-0.04420571	-0.08594789	0.085093	-0.1236867	-0.1488748	-0.04511328	-0.2271419	-0.3268447	-0.1379792	-0.4420227	-0.1202837	-0.1631211	0.008258892	0.4686357	0.3704466	-0.2855125	-0.07494775	-0.1749969	0.02603181	0.2266723	0.3688727	-0.2805782	-0.2100773	-0.242913	-0.0871016	0.1011223	0.04582911	-0.4018717	-0.2173858	-0.1584496	-0.2153786	0.04818635	0.215718	-0.2644474	0.08585489	0.1053549	-0.08353014	0.0380251	0.2799802	-0.0231614	-0.1398501	-0.01905653	-0.1268534	-0.1779855	-0.1307568	0.2912596	0.303567	0.2170099	0.1714641	-0.04828018	0.2252375	-0.2683021	-0.1123432	-0.2563865	0.01720931	0.09965198	-0.08420038	-0.1037398	-0.08314465	-0.1346041	0.08241297	0.141285	0.04866044	-0.3155371	-0.2131702	-0.1946284	-0.6790071	-0.04630658	-0.3101644	-0.3894922	-0.3458245	-0.3096823	0.20252	0.4340388	-0.2810071	-0.4773735	-0.3983391	-0.4970155	0.1672301	0.2764983	0.05977263	-0.9181967	-0.8077791	-0.462311	-0.5501143	0.05401918	0.1764668	-0.08812883	-0.5663031	-0.5078275	0.2811337	0.6636277	-0.2315991	-0.0134402	0.05541575	0.09559871	0.05487134	0.2506043	0.1366859	-0.02147445	-0.6038955	0.2176204	-1.81237	-1.740961	-0.5840721	-0.3292934	-0.2176752	-0.3264432	0.05847615	0.1607792	-0.1993015	0.09969138	0.02405815	-0.02187793	-0.03020796	-0.08208935	-0.1861989	-0.07490584	-0.1927544	-0.05874138	0.2881735	-0.1364958	-0.2258459
-164.0625	-0.003514879	0.1439057	0.06523161	0.03217569	-0.02458079	0.09687978	-0.1192719	-0.1473025	-0.04695089	-0.2246145	-0.3218147	-0.128522	-0.5035406	-0.1546866	-0.1914559	-0.06731192	0.316452	0.3734095	-0.2685238	-0.01288888	-0.1604165	0.1091852	0.2645462	0.4297288	-0.2971229	-0.2169862	-0.2405496	-0.1007419	0.09893275	0.04671673	-0.1645911	-0.0873641	-0.002209313	-0.1939025	-0.02037876	0.2282368	-0.2597445	0.03265911	0.09686463	-0.142353	-0.01060352	0.2387535	-0.05924353	-0.1787203	-0.05228729	-0.1490373	-0.1776359	-0.1441641	0.3125528	0.3550049	0.4050004	0.2092784	0.136059	0.343038	-0.1916855	-0.07291401	-0.1837966	-0.002081369	0.03971547	-0.08288351	-0.1074823	-0.06401307	-0.1354682	0.1067576	0.1704261	0.08175572	-0.3039123	-0.1969195	-0.2279868	-0.6979722	0.01315247	-0.3054637	-0.3508708	-0.3267173	-0.3000718	0.2326968	0.4473382	-0.2832715	-0.4932907	-0.4148939	-0.4992597	0.1368487	0.2639404	0.06547225	-0.8242117	-0.6278881	-0.4886265	-0.0868319	0.3629541	0.3800176	-0.05191055	-0.5257208	-0.5803113	0.276282	0.6835619	-0.2194292	0.007275289	0.05918177	0.06936469	0.03959954	0.2545143	0.1347937	-0.08531155	-0.5569633	0.2893254	-1.905653	-1.828005	-0.5199753	-0.2908824	-0.07674673	-0.1905714	0.06439169	0.2141372	-0.09790622	0.1389194	0.07679852	0.02070463	-0.006640562	-0.08025831	-0.1600258	0.1859524	0.05737201	0.1329343	0.3431781	-0.04543455	-0.1522415
-162.109375	-0.0403644	0.1587865	0.00896391	0.05286691	0.04914277	0.1175519	-0.1001727	-0.1343805	-0.034827	-0.2220081	-0.3196793	-0.1119537	-0.4961215	-0.1745637	-0.1371047	-0.1560432	0.156192	0.3674113	-0.2889473	0.004038183	-0.1710393	0.1515832	0.2845559	0.4404978	-0.296685	-0.2079265	-0.2312972	-0.09808685	0.1053933	0.05749274	-0.02600626	-0.02518331	0.1312451	-0.252687	-0.1675147	0.1778452	-0.2504756	-0.01083	0.08249597	-0.1983495	-0.07711352	0.1930853	-0.06709582	-0.1934356	-0.06204193	-0.1494106	-0.1333479	-0.1322831	0.3083555	0.3075898	0.4680399	0.165295	0.1381895	0.3249327	-0.159258	-0.02036837	-0.121094	-0.04650959	-0.01009483	-0.06613827	-0.118251	-0.04302436	-0.1392304	0.1378913	0.2137671	0.1213071	-0.3440525	-0.2563029	-0.2739739	-0.6811365	0.05483847	-0.2882812	-0.2543218	-0.2656515	-0.2860655	0.3030636	0.4357009	-0.2924446	-0.4905666	-0.4046015	-0.4879539	0.1131229	0.2627383	0.08517057	-0.7080758	-0.4440428	-0.5460034	0.3606344	0.5832046	0.5637102	-0.02817014	-0.4716204	-0.5809981	0.2297531	0.6619318	-0.2068096	0.006830892	0.05678478	0.04476893	0.02601703	0.2670466	0.135231	-0.1413186	-0.3177525	0.5357724	-1.719831	-1.637857	-0.2153797	-0.2822812	-0.08117213	-0.1802214	0.0265508	0.2388913	-0.1001985	0.09877202	0.01837739	-0.01662478	-0.02388489	-0.09233511	-0.18118	0.3766511	0.1605406	0.2190897	0.3531131	0.01463776	-0.1559434
-160.15625	-0.1310831	0.1303607	-0.04255073	-0.02427566	0.1068673	0.1421977	-0.0795956	-0.1158619	-0.01698268	-0.2186483	-0.3257083	-0.0912639	-0.4468597	-0.1643991	-0.03672763	-0.2199974	0.08756336	0.3641472	-0.3489057	-0.01172785	-0.1977245	0.1616269	0.2870647	0.4204459	-0.2778735	-0.1792229	-0.2191763	-0.07066963	0.1207347	0.08095069	-0.008768694	-0.06115215	0.1576779	-0.3563274	-0.3310622	0.08091464	-0.2378445	-0.01566922	0.08618894	-0.2332876	-0.1224755	0.1837401	-0.03320255	-0.1618277	-0.02713714	-0.125014	-0.06194652	-0.08880196	0.3134622	0.1556031	0.3769662	0.04699571	-0.05945894	0.1315984	-0.1782847	0.007467325	-0.108975	-0.09235825	-0.0334902	-0.0474093	-0.1290719	-0.02570177	-0.1443404	0.1712455	0.2476757	0.1505638	-0.3878698	-0.3334351	-0.2974244	-0.5973014	0.09707145	-0.2482618	-0.1277182	-0.165267	-0.2465046	0.3755727	0.3990728	-0.3018093	-0.4697075	-0.3649629	-0.4573579	0.09284479	0.2665303	0.1161246	-0.6731715	-0.3377427	-0.6341014	0.5875213	0.6699346	0.710368	0.006449002	-0.40589	-0.492163	0.1515206	0.6030238	-0.1946431	-0.01324034	0.04938742	0.02674311	0.02423193	0.2832415	0.1335453	-0.1886804	0.007521751	0.7559095	-1.374516	-1.271219	0.17754	-0.23649	-0.1038904	-0.19159	0.004175842	0.2469818	-0.1421276	0.07853127	0.005368446	-0.01332274	-0.03268291	-0.07177672	-0.1663664	0.7010055	0.4631039	0.4499176	0.4967688	0.1348596	-0.05395794
-158.203125	-0.2306661	0.07467535	-0.06830259	-0.14396	0.1318745	0.1664677	-0.0805108	-0.1102191	-0.009572079	-0.2179958	-0.3421664	-0.07765508	-0.3509502	-0.09683007	0.0626796	-0.1838176	0.1443566	0.374892	-0.4248818	-0.02416638	-0.2252831	0.1763126	0.2969753	0.4107389	-0.2536011	-0.1477666	-0.2153494	-0.03118024	0.1377105	0.1060279	-0.05976411	-0.1477974	0.06361944	-0.4144024	-0.4269377	-0.004510651	-0.2246471	0.01726856	0.1076157	-0.2329848	-0.1174568	0.2162863	0.004177694	-0.1109804	0.0217701	-0.09766219	-0.004520252	-0.03823119	0.3583224	-0.006551483	0.2402459	-0.05829089	-0.2820854	-0.1101643	-0.2089692	0.007583904	-0.139174	-0.1051092	-0.02746186	-0.02558547	-0.1269989	-0.004792673	-0.1404994	0.2040003	0.2561427	0.1685278	-0.3792711	-0.3580797	-0.2855675	-0.4562994	0.1555368	-0.2140756	-0.03583854	-0.0635611	-0.1759478	0.3797428	0.3501121	-0.2948247	-0.4395697	-0.312362	-0.4110105	0.07314222	0.2637578	0.1442901	-0.7667614	-0.3366715	-0.7192736	0.5277468	0.6532219	0.8288884	0.0591305	-0.3266414	-0.3466137	0.07713649	0.5376559	-0.171211	-0.04328727	0.02411365	0.007624879	0.02996474	0.28977	0.1194415	-0.2349564	0.254869	0.7603465	-1.055646	-0.9153888	0.4483546	-0.1590885	-0.08218888	-0.1695181	0.01805304	0.2423044	-0.175063	0.1034839	0.0688103	0.04988553	-0.01976327	-0.02105607	-0.1087604	0.6641801	0.2140382	0.238564	0.5140058	0.08627871	-0.2594143
-156.25	-0.2827287	0.01552339	-0.06909502	-0.2251641	0.1119947	0.1706278	-0.09244865	-0.1128802	-0.01324056	-0.2030297	-0.3582674	-0.07291809	-0.280833	-0.05153788	0.0805844	-0.08214926	0.2466217	0.3515893	-0.485289	-0.01149916	-0.2450634	0.2201461	0.3329313	0.4333667	-0.2428058	-0.1366278	-0.2319191	-0.0002022168	0.1525231	0.1176505	-0.09041592	-0.2034239	-0.07744408	-0.3637772	-0.4166862	-0.03656539	-0.2285022	0.04921226	0.1100935	-0.2015869	-0.06204046	0.2551991	0.003727333	-0.08236527	0.04025687	-0.09140601	0.001030738	-0.01395438	0.4803908	-0.03580156	0.2367618	-0.06012163	-0.344143	-0.2202223	-0.2123069	0.007735838	-0.1725828	-0.06720703	0.005961917	0.01536455	-0.1036032	0.02852581	-0.118429	0.2306819	0.2392753	0.1848766	-0.3226312	-0.3060364	-0.2673215	-0.3148091	0.2498533	-0.2080059	-0.0241169	0.005782716	-0.09295811	0.2954399	0.3222153	-0.2488126	-0.4093767	-0.2672563	-0.3612441	0.06061749	0.2531554	0.1575514	-0.9336786	-0.4077044	-0.760771	0.2933995	0.5996538	0.9278299	0.09912675	-0.2694868	-0.2263934	0.02901786	0.4814623	-0.1449497	-0.06841175	-0.01961568	-0.01795615	0.03343375	0.2826857	0.09122402	-0.2951503	0.3276147	0.5345636	-0.8987692	-0.7338284	0.4886113	-0.1708155	-0.1554293	-0.2120719	-0.001780238	0.1903276	-0.2469331	0.05088683	0.002322633	0.01025579	-0.05112612	-0.01474026	-0.1299029	1.042282	0.736478	0.6117687	0.8310428	0.2194187	-0.04167344
-154.296875	-0.286522	-0.05447676	-0.07178037	-0.2506908	0.03616161	0.1259445	-0.1072583	-0.1234878	-0.02559426	-0.1808385	-0.3679357	-0.0806535	-0.2712364	-0.09098064	-0.01136138	0.03161309	0.297058	0.2653854	-0.502147	0.0262677	-0.2532797	0.2862241	0.3927225	0.4765866	-0.2558715	-0.1555127	-0.2676947	0.008319035	0.1642784	0.1116015	-0.04178657	-0.18107	-0.1584677	-0.2304302	-0.336612	-0.02609202	-0.2343947	0.06020606	0.08000468	-0.1519764	0.01060884	0.2633843	-0.04899077	-0.09705143	0.007141748	-0.1126169	-0.04757775	-0.027688	0.5920872	0.07563139	0.3822702	0.03875956	-0.1910946	-0.1378829	-0.1713524	0.04148688	-0.1666333	0.01320931	0.05076593	0.07863841	-0.06348695	0.07234767	-0.07990167	0.2473666	0.2154294	0.2078653	-0.2338766	-0.2072312	-0.2610514	-0.2271693	0.3118813	-0.2546721	-0.08229681	0.03626386	-0.0266252	0.1694195	0.342274	-0.158073	-0.3828043	-0.2372986	-0.3208063	0.06932275	0.2477895	0.1584548	-1.055156	-0.4948671	-0.7557615	0.08345765	0.5428118	0.9797927	0.1098209	-0.2309682	-0.1656233	0.02052058	0.4488167	-0.1088823	-0.088931	-0.08363086	-0.05671933	0.02004381	0.2628669	0.0498866	-0.3198684	0.350681	0.2972178	-0.854588	-0.708654	0.4137307	0.01704211	0.150307	0.042511	0.09380978	0.2457556	-0.07383791	0.03419542	-0.00628946	0.009130185	-0.05326042	-0.008825096	-0.1260701	1.02007	0.6984808	0.575558	0.8877464	0.1478377	-0.1348714
-152.34375	-0.2616708	-0.1280324	-0.08877479	-0.2396485	-0.07219835	0.03930609	-0.1069467	-0.1281006	-0.0365738	-0.1559445	-0.3612886	-0.09304442	-0.324515	-0.2181458	-0.1643061	0.105131	0.2520495	0.1452909	-0.4683795	0.07050365	-0.247449	0.3395824	0.4512764	0.5116971	-0.2859629	-0.191097	-0.3051336	-0.004039472	0.1740652	0.09869708	0.08627847	-0.08996307	-0.1119943	-0.1006551	-0.252959	-0.02151091	-0.2089328	0.06169945	0.04047645	-0.1032855	0.05377327	0.2337568	-0.133239	-0.143088	-0.06163495	-0.1441898	-0.1085286	-0.05859227	0.5913278	0.2165236	0.5496002	0.1451997	0.04076967	0.02643138	-0.104341	0.1136255	-0.1141399	0.1134421	0.08977715	0.1433715	-0.02162323	0.1108643	-0.0379335	0.2496407	0.2008704	0.2315411	-0.1490375	-0.1124733	-0.2711313	-0.1918847	0.2866721	-0.3276527	-0.1553989	0.04703699	-0.0006682856	0.08377902	0.4108244	-0.04539159	-0.3631307	-0.2183751	-0.2945052	0.09440044	0.2601971	0.1610085	-1.040442	-0.5583057	-0.7226205	0.01971738	0.4471084	0.9337357	0.09481879	-0.1979314	-0.1438988	0.03067618	0.4257794	-0.06343636	-0.1010462	-0.1431352	-0.09185468	-0.00976735	0.2397458	0.01055651	-0.3512988	0.3674904	0.1630836	-0.8274294	-0.7316536	0.3582847	-0.02977682	0.06462622	0.002669263	0.0214916	0.1970994	-0.08791839	0.00026955	-0.04349393	-0.02167773	-0.05529251	-0.02240447	-0.1411601	1.303614	1.193956	0.9733056	1.043222	0.2080952	0.06089757
-150.390625	-0.2500894	-0.1975853	-0.1199796	-0.2447625	-0.1700377	-0.05616305	-0.08553633	-0.1158341	-0.03416942	-0.137575	-0.3401028	-0.09832164	-0.4394024	-0.39976	-0.3104011	0.09137122	0.1378706	0.04000425	-0.4043587	0.09593812	-0.2262147	0.3426499	0.4769395	0.5195982	-0.3126477	-0.2181087	-0.3202443	-0.02581987	0.1779054	0.09401216	0.2314234	0.009121502	0.03483365	-0.06031494	-0.2190618	-0.0617471	-0.1507477	0.06295604	0.01427827	-0.07718099	0.04391393	0.1875755	-0.2121561	-0.1877145	-0.1254565	-0.1631742	-0.1322474	-0.07241638	0.4290993	0.2573186	0.5811619	0.1654308	0.1580462	0.1022017	-0.04411417	0.1891084	-0.04392587	0.1994629	0.1097619	0.1749095	0.005097261	0.1258074	-0.009571462	0.2402962	0.202921	0.2431638	-0.06711847	-0.04452768	-0.2713721	-0.136837	0.1621358	-0.3876936	-0.1850263	0.06353172	-0.01757071	0.09530752	0.5007939	0.04640332	-0.3527213	-0.1989372	-0.2789135	0.1171492	0.2955734	0.1808845	-0.9124504	-0.6054249	-0.6832034	0.04500644	0.2563169	0.7599373	0.08131102	-0.1652731	-0.1190494	0.02451067	0.384719	-0.02462482	-0.1165566	-0.191302	-0.1197828	-0.05049687	0.2156379	-0.02108482	-0.3658142	0.4690946	0.2137669	-0.6900074	-0.6635805	0.4508576	-0.1148034	-0.1395409	-0.1149424	-0.1086962	0.1122092	-0.1572959	0.0275976	0.02012651	0.01950628	-0.01518016	-0.003027101	-0.09373703	1.227653	1.058446	0.8976305	0.8881218	0.1076592	-0.08069133
-148.4375	-0.2765351	-0.2546813	-0.1552065	-0.3049386	-0.2185702	-0.1299181	-0.06241012	-0.09894406	-0.02327057	-0.1377734	-0.3149976	-0.09713694	-0.5540326	-0.5468798	-0.3789057	0.01276494	0.01414431	-0.006091417	-0.3403997	0.09156206	-0.1922186	0.2869034	0.4576593	0.5053009	-0.3152389	-0.218408	-0.3015917	-0.04466303	0.169832	0.1023665	0.3242434	0.06241739	0.1974678	-0.12433	-0.241926	-0.1335854	-0.08660404	0.06346367	0.008234168	-0.08263015	-0.006582255	0.153587	-0.2573555	-0.2039896	-0.150581	-0.1598564	-0.1016622	-0.05170234	0.1856737	0.170224	0.4493451	0.08961554	0.07650705	0.01395761	-0.01600713	0.2181162	0.003176541	0.2370882	0.1051035	0.153928	0.01563888	0.1151404	0.001357517	0.2257504	0.20627	0.2322527	0.02790263	0.02189286	-0.2380017	0.007984431	0.01260599	-0.3975261	-0.1603245	0.08975383	-0.05316583	0.1691233	0.5708197	0.07903568	-0.3521884	-0.1736889	-0.2652593	0.1142647	0.3428436	0.2176883	-0.768203	-0.6685007	-0.6417763	0.02199667	-0.04640301	0.4796337	0.1016388	-0.1341862	-0.05735994	-0.01907538	0.3048359	-0.01154531	-0.1396311	-0.2319662	-0.1435828	-0.08677884	0.1898133	-0.04534662	-0.4003485	0.5555069	0.306489	-0.4503981	-0.5035284	0.6289775	0.001474044	-0.0635855	-0.001313307	-0.1271304	0.0854707	-0.08608045	-0.03266454	-0.05849196	-0.04914892	-0.02541369	-0.008230243	-0.1112189	1.277906	1.050629	0.8952662	0.7580084	0.08896932	-0.1093045
-146.484375	-0.2986872	-0.2610848	-0.1611477	-0.3796051	-0.1958729	-0.1462784	-0.04638771	-0.08484317	-0.006961243	-0.1444133	-0.2922288	-0.09048037	-0.6553029	-0.6299351	-0.3777691	-0.1192757	-0.07911441	-0.008845131	-0.2978022	0.06136174	-0.1532963	0.1974384	0.4057379	0.4849043	-0.2860487	-0.1923594	-0.2594078	-0.05362339	0.1484948	0.1148687	0.319167	0.04234006	0.2860352	-0.2442692	-0.3015552	-0.1923889	-0.05030837	0.05310973	0.007609002	-0.1109928	-0.06714888	0.1368187	-0.2760271	-0.1973328	-0.1437873	-0.1453069	-0.04136137	-0.01165958	-0.02300181	0.03231206	0.2530819	0.001257761	-0.0865996	-0.1456049	-0.02449898	0.1784004	0.006641636	0.2084527	0.08355333	0.1016834	0.01966578	0.09576955	0.002225118	0.2140713	0.1952053	0.2049589	0.1406876	0.1160457	-0.1756292	0.2470226	-0.07043833	-0.3634394	-0.1184117	0.1181576	-0.07208252	0.2206071	0.608172	0.05816687	-0.3564216	-0.1482364	-0.2480444	0.08264239	0.3831348	0.252319	-0.7040267	-0.7753	-0.6093553	-0.1197269	-0.3867299	0.1679992	0.1714413	-0.08602285	0.05249913	-0.07710116	0.1969786	-0.01880118	-0.1814897	-0.2936588	-0.1893285	-0.110083	0.1571289	-0.07707001	-0.4321683	0.5596649	0.3376769	-0.1752072	-0.3254124	0.7787451	0.1604056	0.09444439	0.1817311	-0.08634407	0.05888145	0.007649079	-0.05765027	-0.07139613	-0.06476374	-0.01366102	0.02255282	-0.07609258	1.580339	1.407321	1.127035	0.7930136	0.2114812	0.130538
-144.53125	-0.2577893	-0.1976369	-0.1151043	-0.3985652	-0.1279574	-0.1022492	-0.04840693	-0.09135391	0.0022312	-0.1514216	-0.2780899	-0.09012595	-0.657027	-0.5923995	-0.3194412	-0.2177277	-0.1357132	0.004906553	-0.2745169	0.02295789	-0.1203798	0.1141644	0.347055	0.4670029	-0.2375188	-0.1588057	-0.2173059	-0.0543177	0.1177131	0.1167509	0.2435554	-0.01523689	0.2787178	-0.3310266	-0.357247	-0.1906673	-0.06209692	0.02422632	-0.01039837	-0.138558	-0.1033389	0.1205302	-0.2984806	-0.1938555	-0.1412173	-0.1376618	0.007583774	0.016583	-0.1052089	-0.04309961	0.140188	-0.01913758	-0.1630834	-0.2208373	-0.05053812	0.09266451	-0.01747921	0.1229544	0.05390857	0.05986651	0.02414353	0.08689147	0.00254264	0.2077064	0.1688168	0.1801677	0.2442248	0.2294708	-0.1211232	0.4841189	-0.05048836	-0.3335915	-0.1123071	0.1334642	-0.05462898	0.1776055	0.6264087	0.02630408	-0.3544694	-0.1301018	-0.2257953	0.04674014	0.4076591	0.2648793	-0.7359113	-0.9183373	-0.5986395	-0.3064458	-0.6417056	-0.0822402	0.2323093	-0.05794748	0.1474579	-0.127955	0.08223327	-0.0517244	-0.2056695	-0.3337277	-0.2272469	-0.09669116	0.130591	-0.0980223	-0.4675741	0.4195283	0.2296167	0.02483078	-0.2520949	0.776167	0.002799452	-0.1970379	0.01500373	-0.1876775	-0.1056248	-0.1613908	-0.07366174	-0.05774539	-0.05735559	0.006651401	0.06543607	-0.01593975	1.699532	1.473501	1.119896	0.7684264	0.2435417	0.2539558
-142.578125	-0.1511959	-0.09965763	-0.02836205	-0.3429349	-0.07563277	-0.03505281	-0.05503487	-0.1132958	0.005253898	-0.1482312	-0.2697528	-0.09676795	-0.6144163	-0.519543	-0.2849541	-0.3236554	-0.2134204	-0.04285015	-0.252658	-0.006880095	-0.1010401	0.0637657	0.3012599	0.4433826	-0.1920405	-0.1355309	-0.1937207	-0.05097608	0.08780663	0.1020348	0.1517198	-0.06541404	0.2153162	-0.3309819	-0.3874553	-0.1272426	-0.1211457	-0.02101736	-0.05827137	-0.1424573	-0.09524865	0.08651403	-0.3391338	-0.2067415	-0.1669854	-0.140296	0.02468095	0.01717283	-0.09545289	-0.0315445	0.1367243	0.04189217	-0.04526047	-0.1294499	-0.06706349	0.01545978	-0.03220417	0.02135697	0.02843694	0.06046295	0.02880468	0.09334845	0.005932621	0.2022569	0.1413198	0.1722957	0.2993184	0.3151117	-0.114457	0.6141142	0.02773938	-0.3584317	-0.1614564	0.1353271	-0.01093411	0.05511677	0.6527627	0.04398312	-0.334409	-0.1186343	-0.2026297	0.04490855	0.4240054	0.2519151	-0.8010522	-1.053851	-0.6224554	-0.395242	-0.7282274	-0.2104066	0.2469223	-0.04485991	0.1971803	-0.1371094	0.00038084	-0.08510001	-0.2209873	-0.3706151	-0.2690967	-0.06605112	0.1059583	-0.1222568	-0.4365315	0.2574115	0.08510267	0.1414964	-0.2877357	0.6404315	0.08212992	-0.03498877	0.171216	-0.1223032	-0.1215946	-0.07808232	-0.1414273	-0.118663	-0.1114435	0.001019572	0.07781004	0.0002439089	1.451971	1.007637	0.7263313	0.5568832	0.06100904	0.07819069
-140.625	-0.01294064	-0.01218517	0.06476176	-0.2359484	-0.09006207	0.005944715	-0.05710274	-0.1382599	0.007070207	-0.1406666	-0.2625344	-0.1056011	-0.5493874	-0.4469346	-0.2994248	-0.4291153	-0.3265938	-0.1478434	-0.2163771	-0.02117125	-0.09635898	0.04671459	0.2737625	0.4029002	-0.168637	-0.1269691	-0.1885812	-0.04745705	0.06789209	0.07869348	0.0924153	-0.06882939	0.1672335	-0.2463544	-0.3862017	-0.03597256	-0.1812634	-0.0468046	-0.1017755	-0.1126056	-0.05787652	0.04132916	-0.3824081	-0.2214437	-0.2056598	-0.1415247	0.0188836	0.001962806	-0.09991533	0.002935232	0.1549375	0.1212398	0.211011	0.06950099	-0.05104252	-0.005365567	-0.008630822	-0.04116806	0.01825246	0.09915122	0.02978929	0.1013317	0.009964595	0.1931085	0.1266839	0.1767619	0.2598763	0.3061502	-0.1830398	0.5880436	0.1082037	-0.4476314	-0.2388163	0.1339924	0.02246774	-0.0508464	0.7007567	0.1427759	-0.2984746	-0.1105604	-0.1831011	0.08437331	0.4424128	0.2264637	-0.8130485	-1.133331	-0.6924856	-0.2870264	-0.6576484	-0.226728	0.1949072	-0.0499417	0.1891464	-0.1103143	-0.03269407	-0.1033736	-0.22858	-0.3930572	-0.3013904	-0.0398083	0.08369067	-0.1465215	-0.3648055	0.1346588	-0.06094554	0.1953528	-0.3750488	0.4229921	0.02161125	-0.09727061	0.1321454	-0.1552155	-0.1693245	-0.1021321	-0.1279927	-0.04972892	-0.07379854	0.04233281	0.1126154	0.07271442	1.683963	1.416311	1.059699	0.6104624	0.05522966	0.3445105
-138.671875	0.08660185	0.02195209	0.1168413	-0.1459041	-0.1696022	-0.01635589	-0.04508286	-0.1426944	0.02069676	-0.1355056	-0.2514975	-0.1037693	-0.5388469	-0.4405689	-0.3705085	-0.5651893	-0.4644554	-0.2784452	-0.161972	-0.01588807	-0.09818801	0.05015196	0.2642141	0.3531145	-0.172376	-0.1252361	-0.1861157	-0.04545442	0.05930354	0.06015765	0.06015717	-0.03424467	0.1770312	-0.1404694	-0.3759158	0.0345637	-0.2053207	-0.03314951	-0.1097842	-0.06185778	-0.01821778	0.006211327	-0.400239	-0.2108869	-0.2186556	-0.1251712	0.01786306	-0.002467066	-0.1526151	0.02573586	0.1269191	0.1715398	0.450363	0.2586778	0.01098232	0.03786509	0.05971249	-0.03135927	0.01662526	0.1364051	0.02260022	0.09207587	0.009393072	0.1791373	0.1318954	0.1784441	0.1399942	0.1792196	-0.30389	0.4489492	0.1379841	-0.5781789	-0.3082931	0.1283047	0.006917906	-0.06045381	0.7558384	0.2997575	-0.2566708	-0.09441299	-0.1674711	0.1452242	0.4722852	0.2131543	-0.7631679	-1.142322	-0.7828428	-0.07418231	-0.515133	-0.1815292	0.113826	-0.06595635	0.1455727	-0.07281148	-0.03143366	-0.1041597	-0.2287828	-0.3952571	-0.3085	-0.0378563	0.05661469	-0.1674154	-0.2826323	0.091221	-0.1958336	0.2401335	-0.4225975	0.19047	0.0741538	-0.02527202	0.1864313	-0.158279	-0.1485231	-0.02680656	-0.1531193	-0.06591196	-0.1078548	0.04980597	0.1128372	0.07494699	1.607946	1.364267	1.096123	0.4124383	-0.1394532	0.328584
-136.71875	0.1179831	0.01496828	0.1068661	-0.1011234	-0.2557169	-0.09164166	-0.0218486	-0.1146033	0.05244012	-0.1370015	-0.2364155	-0.08646545	-0.5360112	-0.4534753	-0.4235114	-0.6625903	-0.5823233	-0.3601764	-0.1140331	-0.005843904	-0.1007184	0.05324011	0.2591422	0.3096611	-0.1915151	-0.1187991	-0.1714955	-0.04320752	0.05703718	0.05341165	0.005121642	-0.01015963	0.2324275	-0.09395529	-0.3892402	0.05368535	-0.1791837	0.01663412	-0.07328185	-0.01185634	0.0006800552	-0.00301716	-0.3767346	-0.1619312	-0.1791372	-0.08923367	0.03412177	0.01661081	-0.164115	0.08771214	0.09439362	0.2238964	0.5612562	0.3782825	0.1044481	0.1096693	0.1460354	0.03497992	0.01432565	0.1346115	0.0179859	0.06398798	0.00884563	0.1681377	0.1414561	0.1608511	-0.001655869	-0.01028824	-0.423087	0.3036824	0.1295816	-0.6887559	-0.3446478	0.1207872	-0.06032423	0.03999542	0.798296	0.4629877	-0.2230688	-0.0654865	-0.1524469	0.1902539	0.508364	0.2243655	-0.6968641	-1.100813	-0.8680759	0.0872651	-0.3892391	-0.1455928	0.05799465	-0.08822876	0.09032216	-0.05329618	-0.02653361	-0.1000037	-0.2210801	-0.3778712	-0.2904244	-0.05987194	0.02405776	-0.1804708	-0.2222931	0.09206124	-0.3343964	0.300861	-0.4082982	-0.02836285	-0.01768436	-0.2459474	0.03120438	-0.2704014	-0.1958521	-0.09131277	-0.1205586	-0.01690444	-0.08723444	0.07234315	0.1312954	0.09671455	1.630634	1.464164	1.264312	0.2022279	-0.2877333	0.439988
-134.765625	0.1049895	0.01059295	0.05082096	-0.08118352	-0.2795437	-0.174205	-0.001231156	-0.0672343	0.09281172	-0.1468496	-0.2250567	-0.06419239	-0.5603713	-0.5044165	-0.4544673	-0.7290288	-0.6685818	-0.393795	-0.1052282	-0.008345556	-0.1017588	0.04390474	0.2431825	0.2819868	-0.2051755	-0.1020446	-0.1444013	-0.03674713	0.05526216	0.05582456	-0.1049057	-0.0290573	0.2793406	-0.1421789	-0.4263741	0.03336006	-0.1433497	0.06004827	-0.03066595	0.01295432	-0.008939159	0.0006391201	-0.3251719	-0.08998812	-0.1017329	-0.04717848	0.05651689	0.04721053	-0.0536526	0.2415552	0.1247989	0.3476631	0.5685102	0.4572291	0.2018039	0.1594678	0.2175794	0.1040443	-0.01054282	0.08242981	0.02240629	0.03487802	0.01235722	0.1646535	0.1464149	0.1288106	-0.09627098	-0.1633288	-0.4857388	0.2337088	0.1300619	-0.7130907	-0.3622919	0.1024836	-0.146427	0.1675835	0.8205742	0.5786327	-0.2005698	-0.02110327	-0.1329619	0.2079202	0.5455146	0.2577253	-0.6685361	-1.040948	-0.9124412	0.08097164	-0.3148927	-0.1581789	0.04693756	-0.1387477	0.02268574	-0.06660905	-0.04658547	-0.1172484	-0.2011301	-0.3473226	-0.2576359	-0.08728734	-0.01031095	-0.1824895	-0.1991657	0.04990818	-0.4856777	0.3518028	-0.3897002	-0.2401806	-0.005361277	-0.2980182	0.01994774	-0.3005706	-0.1829578	-0.05555902	-0.1339672	-0.06110582	-0.1258016	0.0515147	0.129695	0.06483982	1.50345	1.271093	1.178571	-0.122773	-0.4592848	0.4949824
-132.8125	0.1218876	0.06641398	0.008923454	-0.02184893	-0.207903	-0.2003774	0.01087973	-0.02211277	0.1281413	-0.1555051	-0.2218347	-0.04937038	-0.5461027	-0.5312073	-0.4162496	-0.752009	-0.7318579	-0.3898773	-0.1556686	-0.03667983	-0.1045035	0.01767508	0.1993252	0.2580176	-0.1955244	-0.07779823	-0.1156881	-0.02353714	0.05081961	0.06114477	-0.2524799	-0.1013862	0.2664269	-0.258875	-0.4618995	0.001458748	-0.1263636	0.07427669	-0.01271299	0.01466112	-0.03538076	-0.00408872	-0.2756797	-0.02687392	-0.03287449	-0.01532426	0.06586476	0.06664217	0.17489	0.4706981	0.233864	0.5588685	0.5666057	0.5456582	0.2670293	0.1590811	0.2498903	0.1263014	-0.0637088	0.007132044	0.03578577	0.02870692	0.0208374	0.17114	0.1475651	0.1021369	-0.0985799	-0.1933681	-0.4638107	0.2661167	0.1693187	-0.6180127	-0.3903058	0.07272925	-0.2105641	0.2328232	0.850134	0.6348586	-0.1835229	0.03187743	-0.1092751	0.2151703	0.5801358	0.2953109	-0.7070659	-0.9976674	-0.9198264	-0.06816902	-0.2550021	-0.2129089	0.08153801	-0.1710571	-0.02220363	-0.08690771	-0.07794414	-0.1325337	-0.1714274	-0.3155091	-0.2304487	-0.09716558	-0.03802602	-0.1746709	-0.1853477	-0.0518974	-0.5834893	0.3618004	-0.4286022	-0.4182139	0.1492545	-0.05508236	0.2324435	-0.1953481	-0.07088583	0.1353302	-0.1220143	-0.05979847	-0.1165692	0.04065096	0.147004	0.07128119	1.447405	1.150496	1.119801	-0.3767577	-0.5314572	0.6918511
-130.859375	0.21288	0.1852564	0.03195511	0.09523857	-0.08310905	-0.1477163	0.01201589	-0.002998855	0.1437239	-0.1570844	-0.2241818	-0.05000955	-0.4601216	-0.491876	-0.3221441	-0.7282541	-0.769527	-0.3728155	-0.2528079	-0.08674905	-0.1111614	-0.02353914	0.1228823	0.2141642	-0.1575675	-0.05168767	-0.09549037	-0.005774143	0.04402763	0.06712151	-0.3682916	-0.190018	0.1812868	-0.3595594	-0.4451106	-0.01040691	-0.162495	0.03981891	-0.04810452	0.002337855	-0.05685835	-0.03526592	-0.2502076	0.003782619	-0.01264493	-0.0002759336	0.05547792	0.06334658	0.3801548	0.633473	0.3087166	0.7604655	0.6138676	0.6209958	0.2790627	0.116257	0.2403056	0.09453866	-0.1271731	-0.05095324	0.05230083	0.05418422	0.03121356	0.1830735	0.1480181	0.09604316	-0.01678617	-0.09344838	-0.3697916	0.3614092	0.2340796	-0.4224097	-0.4447184	0.03708557	-0.2311079	0.2077099	0.9159328	0.6580672	-0.1648963	0.08256719	-0.08859497	0.2400393	0.6147678	0.3198701	-0.7555345	-0.9452951	-0.8982986	-0.1813512	-0.1453158	-0.248697	0.09476001	-0.2063107	-0.06103331	-0.1098465	-0.1128679	-0.1500366	-0.1396241	-0.2904569	-0.2195349	-0.08095444	-0.05781671	-0.1617067	-0.1492678	-0.1880901	-0.5777493	0.3263082	-0.5374612	-0.5341341	0.05206791	-0.151234	0.1575273	-0.1947981	-0.04684233	0.1159958	-0.197795	-0.1809436	-0.1974366	-0.01515001	0.1293924	0.02784506	1.211213	0.7251394	0.8276504	-0.6734561	-0.6279892	0.7406294
-128.90625	0.3502696	0.3098958	0.1245711	0.217189	0.01599861	-0.05046612	0.006643104	-0.01525859	0.1378129	-0.152231	-0.2246681	-0.06122421	-0.3703377	-0.4207439	-0.2232487	-0.7244035	-0.7982408	-0.3708886	-0.3560596	-0.1429255	-0.1197346	-0.0762706	0.0249932	0.1358681	-0.1028228	-0.02864422	-0.08321237	0.008251271	0.0351924	0.07593573	-0.3689871	-0.212908	0.07041223	-0.3438863	-0.3290094	0.02489185	-0.2268821	-0.01626785	-0.1069755	-0.006621476	-0.06049116	-0.0773994	-0.2337706	0.008598874	-0.03303991	0.004187395	0.03399338	0.04686163	0.4047697	0.5885137	0.2242305	0.8101636	0.6681749	0.6034999	0.2355324	0.05994402	0.2001665	0.03844306	-0.1603452	-0.06453487	0.06019482	0.09262928	0.03461706	0.1943155	0.1521335	0.1100352	0.1082679	0.06820707	-0.2393731	0.4522918	0.2823416	-0.1926409	-0.5113786	0.005618691	-0.2242207	0.1546027	1.02413	0.6861243	-0.1457392	0.1178744	-0.08348951	0.2916701	0.6509227	0.3234066	-0.7597066	-0.8514165	-0.8629152	-0.1126249	0.05012535	-0.1963818	0.04919281	-0.242687	-0.08563514	-0.1386569	-0.144044	-0.1608326	-0.1285865	-0.2920068	-0.2335547	-0.05902731	-0.08123776	-0.1562336	-0.07567352	-0.3271531	-0.4657039	0.2515227	-0.6839945	-0.5881781	-0.06037033	-0.2481909	0.0546794	-0.2023294	-0.03609834	0.06835247	-0.1470877	-0.07313161	-0.1093846	0.013435	0.1701669	0.1218652	1.143077	0.5883481	0.7792758	-0.797993	-0.613393	0.8528919
-126.953125	0.5034607	0.4060624	0.2669747	0.292651	0.04084186	0.04110144	-0.01138105	-0.05380361	0.1139983	-0.1552215	-0.2161979	-0.07359596	-0.3285021	-0.3411653	-0.1448833	-0.7485548	-0.8007811	-0.3709487	-0.4124723	-0.1774594	-0.1212282	-0.1275697	-0.06237441	0.04068074	-0.05343681	-0.01157505	-0.0708708	0.009335065	0.02391816	0.08854128	-0.2570011	-0.1363062	0.0004406536	-0.1933118	-0.1423609	0.1077741	-0.2709676	-0.06018654	-0.1455477	-0.002672639	-0.04469432	-0.1005652	-0.2168366	-0.003911737	-0.06514606	0.0007340203	0.01689747	0.0314694	0.2081895	0.3171461	-0.02837375	0.6308354	0.6239411	0.4371907	0.1701447	0.02083017	0.1555962	0.007081773	-0.140892	-0.04169694	0.05716061	0.1149084	0.02895482	0.2008855	0.1513895	0.1260526	0.2061645	0.1833964	-0.1253799	0.4722953	0.287093	-0.01268311	-0.5537989	-0.01474816	-0.219711	0.1599298	1.130476	0.7276028	-0.1284677	0.1328721	-0.09968355	0.3542048	0.678828	0.3095428	-0.6999956	-0.695275	-0.8167103	0.1486238	0.3130231	-0.02667068	-0.007196661	-0.2265145	-0.04796965	-0.1611407	-0.1677611	-0.1395451	-0.1296436	-0.2928696	-0.2416897	-0.04714737	-0.1156525	-0.1510953	0.01609244	-0.4087665	-0.301606	0.1707622	-0.7936477	-0.5893512	-0.01765324	-0.1334078	0.1082652	-0.1615049	-0.01047087	0.1159126	-0.2123667	-0.1498325	-0.171453	-0.02631671	0.1475896	0.1095904	1.116049	0.5426802	0.8210425	-0.8525743	-0.5829267	0.8626751
-125	0.5882467	0.4250429	0.3802755	0.2613966	-0.003821354	0.06890956	-0.0421466	-0.09697436	0.08475279	-0.1730132	-0.1969869	-0.07639094	-0.3362128	-0.2628182	-0.1012918	-0.7233981	-0.7374783	-0.3446858	-0.3932766	-0.174991	-0.106113	-0.1631031	-0.1121192	-0.03630817	-0.0256847	-0.0001465883	-0.05208107	-0.003941141	0.01007634	0.09924389	-0.1057433	0.02556903	0.01848796	0.02331098	0.03685792	0.2204355	-0.2720772	-0.08830657	-0.1511623	0.007152179	-0.0165323	-0.09454841	-0.1820481	-0.01265116	-0.0646323	-0.0080412	0.008209376	0.02844017	-0.09068237	-0.02147299	-0.2915324	0.2986237	0.4313214	0.1863225	0.1095377	0.008954898	0.1166267	0.02007765	-0.05630837	0.0006252862	0.04916448	0.1045124	0.01872357	0.2032054	0.1372363	0.125873	0.2275764	0.1928379	-0.06156702	0.3845496	0.2517999	0.0639123	-0.5491988	-0.02241776	-0.2253629	0.2437224	1.172785	0.7607516	-0.1202684	0.1267599	-0.1328222	0.3947991	0.6845658	0.2890199	-0.6051856	-0.5037779	-0.763132	0.4738984	0.5795743	0.2089821	-0.05169	-0.1930328	0.02452247	-0.1921643	-0.205138	-0.1041176	-0.1420713	-0.2929831	-0.2388208	-0.0618194	-0.1617996	-0.1494194	0.1133581	-0.4076968	-0.1474887	0.1045422	-0.8379754	-0.5803063	0.007765213	-0.114769	0.1106123	-0.1907718	-0.07666458	0.1023161	-0.1511504	-0.03146667	-0.0870299	-0.00104629	0.1705893	0.1901304	0.7960458	0.01691453	0.4562415	-1.047006	-0.7026798	0.4738838
-123.046875	0.5882132	0.3874366	0.4135859	0.1641423	-0.05920488	0.03224834	-0.08048178	-0.1227838	0.05836138	-0.1953047	-0.1663233	-0.06428984	-0.3848819	-0.2105068	-0.09210835	-0.6349768	-0.626731	-0.3066793	-0.3182141	-0.1456287	-0.07913107	-0.1751056	-0.1209869	-0.07192172	-0.02228921	0.004464179	-0.0316101	-0.02447859	-0.005988826	0.09602661	-0.004884035	0.2066076	0.1170095	0.1893321	0.1268601	0.3261405	-0.2254954	-0.1027376	-0.1318325	0.01545438	0.009987255	-0.07520497	-0.1453017	-0.01640565	-0.02991702	-0.0231173	0.004617269	0.03447095	-0.278921	-0.1897794	-0.34699	-0.001605501	0.1437177	0.002031883	0.07816543	0.02120743	0.09045921	0.0647748	0.05815648	0.04249651	0.0488538	0.07629234	0.01450699	0.2048789	0.1078723	0.1071135	0.171349	0.1311062	-0.0491869	0.2103621	0.2063053	0.04506537	-0.4966938	-0.01872813	-0.2193545	0.3430982	1.10489	0.7472274	-0.1184158	0.112352	-0.1631581	0.4015533	0.6627901	0.2779677	-0.5300033	-0.3398731	-0.7044623	0.6763703	0.7773661	0.4061913	-0.03648423	-0.1299032	0.128925	-0.2158947	-0.2627658	-0.05333267	-0.1290518	-0.2499495	-0.1984801	-0.08209876	-0.2016525	-0.132517	0.164152	-0.419871	-0.1005053	0.02234434	-0.8591361	-0.6375342	-0.06416511	-0.2970297	-0.0113009	-0.3104888	-0.2470903	-0.02185462	-0.1716894	-0.06731823	-0.1121929	-0.03855398	0.1416348	0.1689599	0.8401955	0.07393523	0.46409	-0.9901476	-0.6486844	0.3772973
-121.09375	0.5240811	0.330691	0.3622075	0.07886916	-0.07035878	-0.02843995	-0.1150666	-0.1253798	0.0342727	-0.2059022	-0.1345845	-0.04574374	-0.4414763	-0.187345	-0.1249744	-0.490456	-0.4945424	-0.2881646	-0.2390665	-0.1151653	-0.05768747	-0.1651221	-0.111946	-0.07598588	-0.0313208	0.0009109171	-0.01938818	-0.04254241	-0.02524632	0.07194428	-0.003368504	0.3140535	0.2235668	0.217771	0.1041764	0.3826058	-0.1743611	-0.1172388	-0.1277561	0.02369491	0.03880055	-0.06854404	-0.1161436	-0.008166762	0.01753784	-0.03271706	0.004479857	0.04697175	-0.2534221	-0.0817127	-0.1295704	-0.1235749	-0.1119983	0.00110521	0.07675121	0.04872454	0.07527567	0.1074359	0.1569268	0.07912429	0.06159187	0.06419992	0.02270677	0.207043	0.07810889	0.08620512	0.08408346	0.1027415	-0.05720036	0.02469655	0.1825139	-0.001920096	-0.4184741	0.0007817419	-0.1676222	0.3726537	0.9478734	0.6826203	-0.1188505	0.1016915	-0.1717408	0.3846428	0.6214584	0.2862874	-0.4940525	-0.2579154	-0.6540741	0.6726019	0.855188	0.4627212	0.002142224	-0.07781138	0.213022	-0.2414989	-0.3365802	-0.004629869	-0.09024239	-0.1826557	-0.1444318	-0.09159296	-0.2255695	-0.1080594	0.2629578	-0.3248104	-0.03809424	-0.02549251	-0.8688622	-0.6834204	0.07532166	-0.114769	0.154419	-0.2873941	-0.3087388	0.06686459	-0.1903897	-0.1154415	-0.1338413	-0.08015712	0.1035858	0.1338391	0.6542274	-0.2651506	0.09992126	-1.020892	-0.6891857	0.1068753
-119.140625	0.4568587	0.292944	0.2780695	0.07497164	-0.03235023	-0.05999231	-0.1305593	-0.1063105	0.009853162	-0.1827625	-0.1031269	-0.0244237	-0.4372437	-0.1380464	-0.167475	-0.3182699	-0.381611	-0.2914478	-0.2039639	-0.1079038	-0.06493594	-0.143425	-0.1163405	-0.08418345	-0.03347137	-0.007287372	-0.01812752	-0.0513971	-0.04699483	0.0327881	-0.04695223	0.3221569	0.2606217	0.1396403	0.04644402	0.3811903	-0.1792452	-0.1447445	-0.1771313	0.03290264	0.07587755	-0.08699609	-0.09679739	0.01962103	0.04801843	-0.01828108	0.01621297	0.0692947	-0.09777758	0.1683646	0.188517	-0.07957748	-0.2516642	0.1332811	0.09419902	0.09059777	0.07203957	0.1267334	0.2122201	0.1189263	0.08511414	0.09529497	0.04330236	0.2076162	0.06362534	0.0818859	0.04115597	0.1982056	-0.0398114	-0.06441152	0.1876717	0.003945102	-0.3422682	0.03243364	-0.07006656	0.2998779	0.7663288	0.5961135	-0.1185382	0.1029558	-0.1499728	0.363032	0.5776324	0.3147064	-0.4931138	-0.2865302	-0.63209	0.4843496	0.7852836	0.3417959	0.03174923	-0.03053241	0.270839	-0.2758553	-0.4069447	0.0441989	-0.02864107	-0.1021296	-0.08785436	-0.0708565	-0.2297482	-0.07656539	0.3741963	-0.2413353	0.0009280151	-0.05889685	-0.9064125	-0.7403814	0.09459707	-0.07180193	0.1994084	-0.2849303	-0.3576262	0.0942815	-0.1936934	-0.1445785	-0.1286504	-0.106488	0.06603523	0.1109898	0.7133529	-0.1917377	0.04975439	-0.8572019	-0.5801536	0.1405843
-117.1875	0.4320537	0.283312	0.2255367	0.1592181	0.02538798	-0.03705028	-0.1267131	-0.08292212	-0.01933894	-0.1284854	-0.07542136	-0.008315559	-0.4476602	-0.1049648	-0.2535382	-0.2404467	-0.321856	-0.3264431	-0.2273398	-0.1350927	-0.1126541	-0.1267446	-0.1545342	-0.1298402	-0.01897946	-0.01518994	-0.02027254	-0.05372934	-0.06983734	-0.005730379	-0.04419369	0.2699829	0.1941386	0.06676077	0.0624112	0.3523394	-0.2464085	-0.1705757	-0.2665697	0.04892341	0.1235214	-0.1071115	-0.06993531	0.07346518	0.05467419	0.03081215	0.04713047	0.105703	0.02166597	0.3172594	0.3614732	-0.01565082	-0.3087093	0.2241475	0.1160539	0.1478776	0.08529939	0.1258175	0.2300933	0.1713622	0.1067939	0.1632354	0.06790633	0.2005785	0.07275025	0.1014113	0.08511545	0.4315217	0.03215615	0.007197009	0.2299042	0.1172927	-0.2807028	0.07149635	0.03625076	0.184852	0.6352235	0.5394043	-0.1185888	0.1129703	-0.1102652	0.3464463	0.5437638	0.3490733	-0.4879366	-0.3832017	-0.6406901	0.2469335	0.5939088	0.1138521	0.008732778	-0.0008923968	0.2886193	-0.3463466	-0.4672712	0.08110932	0.02646426	-0.03963444	-0.04408419	-0.02633132	-0.2281495	-0.04628844	0.5227172	-0.1470346	0.05718318	-0.0459576	-0.9488115	-0.7723424	0.03705964	-0.09686289	0.1700302	-0.2762955	-0.3578185	0.1008569	-0.153392	-0.1051448	-0.06739851	-0.09294409	0.04506771	0.1286638	0.5399845	-0.4623507	-0.1986489	-0.8037689	-0.5600383	0.01143352
-115.234375	0.4406503	0.2698509	0.2237327	0.2596045	0.06312589	0.01750614	-0.114222	-0.06929461	-0.05067729	-0.06492931	-0.05352695	0.0005433452	-0.4479218	-0.04423039	-0.3530584	-0.2120565	-0.2670676	-0.3255403	-0.2821382	-0.1919363	-0.1855272	-0.1313147	-0.2294095	-0.2173059	0.004642091	-0.01992949	-0.01595692	-0.05718583	-0.09022561	-0.02931159	0.05463876	0.2348768	0.06439427	0.09794413	0.2002272	0.347693	-0.3600475	-0.1992475	-0.3709363	0.06399124	0.1792879	-0.1001483	-0.02498899	0.1399362	0.04904735	0.09891868	0.08777103	0.1463755	-0.06535742	0.1443084	0.2136415	-0.1106084	-0.3909537	0.09295696	0.1335143	0.2132711	0.1193079	0.1156602	0.2374211	0.2323616	0.1225579	0.2340957	0.09151959	0.1837892	0.08855557	0.127704	0.1989785	0.7138858	0.1556729	0.2026351	0.2915931	0.3186452	-0.2355438	0.09720264	0.103364	0.1058182	0.5698033	0.5326382	-0.1206779	0.1208262	-0.07406948	0.325728	0.5158113	0.3668591	-0.4505957	-0.4782476	-0.6674086	0.09078892	0.3463396	-0.09893842	-0.05964281	0.00200307	0.2736865	-0.4610358	-0.5172991	0.09390802	0.04621486	-0.01995619	-0.01980412	0.01875567	-0.2373595	-0.02480546	0.6784318	-0.04289481	0.1237527	0.01864725	-0.9344759	-0.7670379	0.03487113	0.001501324	0.2271454	-0.2093995	-0.2720448	0.1894119	-0.1237178	-0.08485731	-0.01921614	-0.07919402	0.01882875	0.1333684	-0.01833962	-1.305047	-0.8072912	-0.9783525	-0.7145399	-0.4680022
-113.28125	0.465772	0.2375307	0.2585524	0.3148508	0.07182182	0.06493767	-0.121281	-0.08220923	-0.08317487	-0.03332274	-0.04405193	-0.004185869	-0.4914724	-0.01743051	-0.4800278	-0.2140689	-0.18942	-0.288715	-0.3094051	-0.2430854	-0.2399722	-0.1519262	-0.3161412	-0.3134302	0.0235376	-0.01844574	-0.0007552024	-0.06378642	-0.1015481	-0.03345235	0.208352	0.2640111	-0.03967797	0.2279628	0.3924953	0.3999214	-0.4561918	-0.2262239	-0.4394462	0.06873875	0.2269662	-0.05569998	0.03313132	0.1930563	0.04809823	0.1553711	0.1176263	0.1716809	-0.3131762	-0.3071108	-0.1493381	-0.4072224	-0.5889365	-0.2689112	0.1466582	0.2729052	0.1693923	0.1096901	0.2548925	0.2846889	0.1327408	0.2695951	0.1109124	0.1589119	0.09044254	0.1360684	0.3052849	0.9142837	0.2912799	0.3934227	0.3493949	0.532967	-0.1998909	0.09174003	0.1064541	0.1002484	0.5259545	0.5497397	-0.1165829	0.1219373	-0.05608837	0.2988726	0.4812132	0.3523147	-0.4025967	-0.5317694	-0.6878464	0.0353078	0.1304785	-0.1984249	-0.09529361	0.05307152	0.290535	-0.5653731	-0.5407205	0.119987	0.0320761	-0.02112144	0.003881207	0.04956427	-0.2529371	0.0001278628	0.7631515	0.02394721	0.152106	0.08636893	-0.830274	-0.7388707	-0.006579375	0.03702764	0.2435513	-0.1699078	-0.1927603	0.2405902	-0.1005702	-0.07558518	0.01520173	-0.07022812	-0.001458574	0.124909	0.1480054	-0.8906434	-0.4343975	-0.7286593	-0.5202755	-0.3154337
-111.328125	0.4626594	0.1794371	0.2812693	0.2966659	0.07829874	0.0846169	-0.1473044	-0.1079358	-0.1064418	-0.03889864	-0.04246801	-0.01624142	-0.5312692	-0.01858783	-0.5877704	-0.1649423	-0.06057277	-0.2113075	-0.2642829	-0.2473242	-0.2288802	-0.1696963	-0.386084	-0.3744872	0.02713498	-0.01305485	0.01686905	-0.07013061	-0.1018405	-0.02739869	0.332484	0.354222	-0.04566225	0.3583691	0.5139044	0.4953167	-0.4974816	-0.2585721	-0.4536335	0.0572364	0.2577801	0.00209748	0.08276673	0.2099308	0.05523587	0.1769972	0.1220964	0.1669113	-0.6070682	-0.8519206	-0.520498	-0.8094729	-0.8750293	-0.7128215	0.1493104	0.3076199	0.2132156	0.1097264	0.286522	0.3124835	0.1440583	0.2582007	0.1275082	0.1339351	0.06949165	0.1132134	0.3352833	0.954531	0.3977678	0.443661	0.3642177	0.6688125	-0.1685205	0.05157301	0.0732998	0.1200539	0.433707	0.5365944	-0.1002217	0.1155001	-0.05393392	0.2665083	0.4295505	0.3065794	-0.344108	-0.5096594	-0.6710874	0.07581	0.02198879	-0.161435	-0.09663074	0.09909535	0.3170842	-0.6381138	-0.5499584	0.1384682	0.01027282	-0.006038837	0.04434686	0.06577337	-0.2577004	0.03981361	0.7201576	0.01124273	0.09881925	0.1065287	-0.6437404	-0.6914121	-0.1265015	-0.06320776	0.1712927	-0.203317	-0.1712583	0.2004109	-0.09898754	-0.0964925	0.0199325	-0.07901055	-0.01582108	0.09301855	-0.3071829	-1.447905	-0.8734116	-0.8377262	-0.6128182	-0.7522971
-109.375	0.3981151	0.09701125	0.2492371	0.222547	0.09722476	0.07386401	-0.1835512	-0.1317627	-0.1204614	-0.06715965	-0.04285042	-0.02970013	-0.5156371	-0.03875338	-0.653321	-0.0085132	0.1056693	-0.1289069	-0.1504779	-0.1850065	-0.1377239	-0.1663568	-0.4223066	-0.3787373	0.02665166	-0.0006278806	0.03152236	-0.06647894	-0.09463292	-0.02270475	0.3696023	0.4473453	0.05192436	0.3835738	0.4780529	0.5733225	-0.4776551	-0.2866926	-0.4217227	0.04127872	0.2777954	0.0410242	0.1032185	0.1930632	0.06050801	0.1701777	0.1117717	0.141052	-0.8119285	-1.269449	-0.7295398	-1.146307	-1.127498	-1.039518	0.1468624	0.3140208	0.2314171	0.1237228	0.3129642	0.3101445	0.1623172	0.2225174	0.1433637	0.1163374	0.03390951	0.06761654	0.2599669	0.8514404	0.4392402	0.322735	0.3446409	0.6967275	-0.1437704	-0.009576453	0.04815657	0.08583574	0.2622431	0.4568892	-0.07120111	0.1071777	-0.05046402	0.2360418	0.3619494	0.2489396	-0.3131292	-0.4554945	-0.61442	0.1037763	0.02901321	-0.05727551	-0.05992085	0.1570278	0.3701136	-0.643855	-0.5259096	0.1653609	-0.009237083	0.0235237	0.08234923	0.06889735	-0.239373	0.08419585	0.640622	0.05283178	0.07214265	0.1160181	-0.3933504	-0.5408764	-0.2060051	-0.1160027	0.123689	-0.232285	-0.1564023	0.158003	-0.08534609	-0.08605229	0.03541449	-0.07726943	-0.006008872	0.08019504	-0.3004455	-1.218771	-0.8109989	-0.6525117	-0.4813462	-0.7505315
-107.421875	0.3077796	0.03584701	0.1786327	0.1722519	0.1408444	0.07249194	-0.20466	-0.1326298	-0.1266906	-0.07874742	-0.03010735	-0.03173502	-0.452029	-0.07049192	-0.6666665	0.2073561	0.282328	-0.0663984	-0.01625094	-0.07173956	0.0006080329	-0.1372577	-0.422887	-0.3391978	0.03945778	0.01776028	0.04389121	-0.05182843	-0.09298929	-0.02694396	0.3324881	0.4812543	0.181321	0.2856658	0.3112637	0.5725132	-0.4149064	-0.2843961	-0.3653766	0.03731972	0.2921165	0.04842187	0.09598976	0.1733033	0.05748325	0.165363	0.1143405	0.1242539	-0.8875205	-1.47923	-0.7823724	-1.313547	-1.239352	-1.162858	0.1416757	0.3015205	0.2123539	0.160185	0.3235479	0.294246	0.1892811	0.1994184	0.1605221	0.1091856	-0.001608356	0.02199112	0.1444586	0.7018364	0.4226561	0.1323452	0.3044541	0.6355362	-0.1248218	-0.06607936	0.05169139	-0.0282391	0.04498211	0.3215342	-0.04005204	0.1037391	-0.02979463	0.2099514	0.293221	0.2057109	-0.2952804	-0.3945965	-0.530202	0.07941587	0.09732355	0.02804983	-0.03288088	0.2111661	0.4331497	-0.6053727	-0.4694263	0.1932203	-0.02258668	0.05114967	0.09698907	0.0653164	-0.2027372	0.117708	0.5690011	0.1392887	0.06616882	0.1468495	-0.1404482	-0.3029363	-0.1015162	0.1019549	0.2569558	-0.1597786	-0.06829066	0.2468028	-0.03032384	0.00175221	0.09696812	-0.03989463	0.02924361	0.118342	-0.4208831	-1.211764	-0.9683671	-0.535427	-0.4158975	-0.8236709
-105.46875	0.2003427	-0.01646285	0.0855435	0.1502025	0.1730611	0.08322024	-0.1969746	-0.1072615	-0.1321714	-0.05257928	0.001544922	-0.01762432	-0.3638751	-0.09721859	-0.6687662	0.4401747	0.4483379	-0.02694026	0.07897647	0.04561082	0.1232095	-0.09708038	-0.3979911	-0.2921466	0.0791572	0.04452762	0.06455121	-0.03080223	-0.1046797	-0.03477372	0.289863	0.4447858	0.2544589	0.1585218	0.1409991	0.4820318	-0.3527931	-0.2474458	-0.3220828	0.04947197	0.3078254	0.03838623	0.07754263	0.1798141	0.0487155	0.1859692	0.1483799	0.1409896	-0.8906958	-1.547443	-0.8059502	-1.32645	-1.197697	-1.142262	0.1477762	0.2904546	0.1732901	0.2207443	0.3161513	0.2837161	0.2175298	0.2091181	0.1764824	0.1096548	-0.02546373	-0.0008360417	0.07654503	0.6009996	0.3804265	0.0264896	0.2797899	0.553678	-0.1133897	-0.1033311	0.06721556	-0.1809289	-0.1459903	0.1811627	-0.02295477	0.1018429	0.00896755	0.1738801	0.2295329	0.1849989	-0.2671872	-0.3412473	-0.4401243	0.001726932	0.1459356	0.04434794	-0.0501149	0.2386179	0.4751485	-0.5697806	-0.3893431	0.2035538	-0.04461842	0.04257032	0.06791754	0.05495957	-0.1720551	0.1215774	0.5427338	0.2482266	0.07024881	0.234812	0.0672856	-0.03670183	-0.2127207	-0.0802937	0.05905571	-0.2110067	-0.08564305	0.1185891	-0.02459647	0.004059739	0.08789353	-0.02116197	0.0259457	0.1117599	-0.4265666	-1.058513	-0.9625279	-0.3899054	-0.3287419	-0.7436844
-103.515625	0.1219719	-0.04465478	0.01675546	0.1572	0.1832207	0.1132587	-0.1649269	-0.06575644	-0.1392314	0.004378163	0.04991892	0.01026129	-0.3606551	-0.164822	-0.725758	0.5928736	0.6038375	-0.00472934	0.09915809	0.1098315	0.1801839	-0.07632928	-0.3723619	-0.2719997	0.1361612	0.07596978	0.1003155	-0.01304809	-0.1284159	-0.03482112	0.2979421	0.3736201	0.2310416	0.1173543	0.08318802	0.3430883	-0.3024341	-0.1854292	-0.2998958	0.06447247	0.31241	0.03492093	0.05513894	0.2086482	0.03736876	0.2226779	0.2017625	0.1849072	-0.8996884	-1.578765	-0.8987918	-1.270947	-1.076008	-1.092485	0.1701628	0.2909419	0.1413449	0.285924	0.3025291	0.2881613	0.2364836	0.2386427	0.1877225	0.1084785	-0.04046682	0.004200067	0.1025315	0.5866294	0.3516511	0.0903795	0.3020089	0.5148019	-0.1010511	-0.1170597	0.05846229	-0.2803766	-0.2525916	0.08719813	-0.02463192	0.0972018	0.05391049	0.1172127	0.1710434	0.1781235	-0.2133945	-0.2986639	-0.3573156	-0.1059632	0.1047719	-0.01386882	-0.1249823	0.1916644	0.4356555	-0.5774073	-0.3115942	0.1701482	-0.07163499	0.007617785	0.01926758	0.04555155	-0.1650535	0.105231	0.6185132	0.4481329	0.1312024	0.4209846	0.2469623	0.2260397	-0.2946647	-0.2559686	-0.1426712	-0.2310575	-0.08381549	0.01816187	0.009326895	0.03200042	0.1031881	0.01333455	0.00650817	0.1104497	-0.5552421	-1.156907	-1.034812	-0.3897862	-0.3337986	-0.7456205
-101.5625	0.08314767	-0.05290976	-0.01055561	0.1592832	0.177501	0.1482966	-0.1267945	-0.02694566	-0.1434906	0.05643093	0.09510767	0.03847663	-0.4226054	-0.2467171	-0.826049	0.6787555	0.7558143	0.03965243	0.0587383	0.0975523	0.1718715	-0.09426083	-0.3679166	-0.2877943	0.1846248	0.1055518	0.1445896	-0.00342163	-0.1506869	-0.01830116	0.3563203	0.3154157	0.154252	0.1969913	0.14776	0.2218675	-0.2547522	-0.1250227	-0.2827635	0.0601447	0.2877511	0.04707978	0.03091338	0.2307357	0.03040305	0.2398975	0.2322353	0.220671	-0.9208527	-1.601611	-1.018224	-1.221964	-0.9753547	-1.07213	0.1995737	0.29587	0.1347091	0.31811	0.2921111	0.2943097	0.2369009	0.2531135	0.1892861	0.09906724	-0.05397151	0.02305701	0.1947614	0.6187238	0.3634939	0.2584293	0.3469027	0.5293196	-0.08859383	-0.1230414	0.01434743	-0.2875227	-0.2721815	0.05301436	-0.03308377	0.08490292	0.0883967	0.04599948	0.108444	0.1628733	-0.1173825	-0.2375514	-0.2699413	-0.181359	-0.01308172	-0.1086026	-0.1842419	0.1395182	0.3467866	-0.5855575	-0.2322877	0.1391981	-0.1103315	-0.05320098	-0.0369762	0.03234053	-0.1884071	0.07377182	0.6540344	0.5133609	0.09569331	0.5704626	0.3699682	0.3301874	-0.1284392	-0.02853437	-0.0166687	-0.09137284	0.04285618	0.1750206	0.05951719	0.06285308	0.1345723	0.0406717	-0.03199676	0.09172667	-0.7521821	-1.399409	-1.137181	-0.4850302	-0.375254	-0.8162687
-99.609375	0.06841232	-0.04783441	-0.001940177	0.1273182	0.1767649	0.1741049	-0.1059557	-0.007301481	-0.1398274	0.06834292	0.118548	0.05237363	-0.5502063	-0.3615275	-0.9443517	0.67963	0.8749114	0.10195	0.004020235	0.03039732	0.1404936	-0.1470186	-0.395798	-0.3223582	0.2035239	0.1281138	0.1816137	0.001426057	-0.1562151	0.01463379	0.4443722	0.3218048	0.1119828	0.3457516	0.2644183	0.1766353	-0.1857211	-0.08107729	-0.2391599	0.02876807	0.2250348	0.06309012	-0.00217283	0.2143102	0.02637044	0.2092615	0.2079425	0.214168	-0.8928024	-1.537709	-1.024639	-1.165543	-0.9136255	-1.025668	0.216454	0.2890461	0.1488665	0.2896214	0.2816944	0.2774708	0.22025	0.2267192	0.1813869	0.07823183	-0.07148475	0.03346896	0.2492779	0.6159528	0.3960916	0.3653583	0.3862142	0.5697534	-0.07667022	-0.1314729	-0.03598811	-0.2333471	-0.2467533	0.05349129	-0.03196401	0.06403159	0.1069028	-0.02159787	0.03738072	0.1263489	0.02357724	-0.1281751	-0.147948	-0.1762766	-0.1451182	-0.2022441	-0.2013753	0.09499297	0.2152988	-0.5473324	-0.1446873	0.1364679	-0.1417524	-0.09650698	-0.07214236	0.0268598	-0.2170209	0.05056373	0.6340817	0.4865619	0.02160002	0.6145905	0.4740781	0.3242322	-0.03967031	0.1124668	0.07548814	0.01270278	0.1372252	0.2986219	0.0412107	-0.0304341	0.07928633	0.009361922	-0.1058402	-0.01202838	-0.9006018	-1.554891	-1.180124	-0.5528078	-0.3569626	-0.8776641
-97.65625	0.0404662	-0.04613983	0.01216526	0.05587872	0.18768	0.1800587	-0.09732179	0.003405865	-0.1178963	0.0437722	0.117608	0.05160198	-0.662767	-0.4624405	-1.005505	0.6362289	0.9289449	0.1778118	-0.01562758	-0.0369321	0.1336749	-0.2053127	-0.4432247	-0.3468726	0.1955129	0.1451488	0.1989512	0.009504439	-0.1383951	0.05582691	0.537029	0.3917143	0.1534937	0.4674029	0.3405534	0.2086	-0.07565756	-0.03289322	-0.1395664	-0.006496494	0.1423783	0.07490841	-0.03058491	0.1683977	0.03395365	0.1407976	0.1324322	0.1659618	-0.7543409	-1.310199	-0.8326778	-1.03722	-0.8315651	-0.8723136	0.2078652	0.261275	0.1604113	0.2138515	0.2640808	0.220784	0.1957529	0.1650222	0.1690223	0.05050718	-0.08933445	0.02404114	0.2155801	0.5312402	0.4260761	0.2972543	0.3611583	0.5669244	-0.06367081	-0.1372301	-0.04590396	-0.1861152	-0.222949	0.05284036	-0.01066637	0.04173411	0.1152142	-0.06110898	-0.03420816	0.07529631	0.191143	0.03755993	0.01896146	-0.07860721	-0.2130769	-0.2713208	-0.1951033	0.05606874	0.05954577	-0.438778	-0.04626099	0.1635565	-0.1545846	-0.1020972	-0.08209956	0.03450114	-0.2239819	0.04265549	0.4725781	0.27366	-0.1395154	0.4795163	0.5645128	0.2378194	-0.06896358	0.1228208	0.091946	0.05322779	0.1742903	0.3471749	0.0893742	-0.00429357	0.1104793	0.01493381	-0.1238978	-0.05000412	-0.8193989	-1.303588	-0.9955311	-0.4294724	-0.177933	-0.7943795
-95.703125	-0.0152321	-0.05481158	0.01358389	-0.02718615	0.1983064	0.1674105	-0.09068748	0.01969535	-0.08093219	0.01086769	0.1046325	0.04618312	-0.693778	-0.4975613	-0.9459851	0.5811034	0.8893152	0.252113	0.0159414	-0.06199085	0.1585171	-0.2382026	-0.4792584	-0.3405072	0.1870133	0.1631093	0.2012035	0.02522638	-0.1071382	0.09314936	0.6223018	0.4782134	0.2443916	0.5064424	0.3390237	0.2735606	0.07454709	0.05594043	0.01757763	-0.009507172	0.07472289	0.09048665	-0.03943658	0.124956	0.05445696	0.07293428	0.04616822	0.1071136	-0.5094984	-0.9375707	-0.5021935	-0.7992895	-0.666016	-0.6038687	0.181357	0.2198973	0.1503157	0.1412189	0.2361801	0.1360947	0.1812425	0.1034744	0.1634292	0.02722327	-0.1050069	-0.0006668693	0.1194283	0.3805734	0.4294346	0.07919501	0.2605421	0.4856326	-0.04866515	-0.1285949	-7.56734e-06	-0.1915807	-0.21863	0.03455172	0.01912924	0.02093247	0.1222294	-0.07733566	-0.09521276	0.0261372	0.3191612	0.199728	0.1892821	0.02906391	-0.2019763	-0.3277478	-0.1616454	0.08423088	-0.03221828	-0.2579357	0.07771961	0.2315251	-0.1521007	-0.0814811	-0.08653479	0.05303681	-0.1979936	0.03885574	0.2661396	0.03884543	-0.2552062	0.2645376	0.6734965	0.2117699	-0.3354085	-0.2215064	-0.1496932	-0.04864228	0.08504149	0.1857829	0.1793937	0.1180374	0.2012658	0.06264198	-0.08426963	-0.01647111	-0.8708337	-1.25244	-1.058177	-0.3185687	-0.03923409	-0.9056811
-93.75	-0.09670535	-0.08495735	-0.007509734	-0.09863767	0.1822742	0.1345427	-0.07650316	0.04797831	-0.04358755	0.0006420657	0.09480707	0.04791174	-0.6426377	-0.463545	-0.7974424	0.5336631	0.766606	0.2831508	0.07650441	-0.04860212	0.1790303	-0.2379497	-0.4783421	-0.3072479	0.205288	0.1881465	0.2036632	0.04630018	-0.07876645	0.1181752	0.6909171	0.5206744	0.2929062	0.4800677	0.2950442	0.310923	0.2233006	0.1820471	0.1845084	0.03065775	0.0485412	0.1179464	-0.01983469	0.1125994	0.08413893	0.03926358	-0.009202115	0.07180418	-0.2617239	-0.5602309	-0.2168688	-0.5034558	-0.4261917	-0.3158295	0.1627829	0.1868127	0.1212646	0.1305676	0.2063544	0.06204917	0.1864897	0.07725526	0.1721098	0.01517854	-0.1193966	-0.02366831	0.03507151	0.2208291	0.3984776	-0.1518748	0.132582	0.3536159	-0.02527287	-0.09604535	0.06761242	-0.2278963	-0.2211495	0.009910759	0.03985823	0.004607834	0.1304682	-0.08834182	-0.1373647	-0.008073859	0.385965	0.3292319	0.2987896	0.1264538	-0.1294607	-0.3656094	-0.1670115	0.1064902	-0.08745972	-0.08307913	0.2005148	0.2703968	-0.1509921	-0.06741521	-0.1088832	0.07021512	-0.1514672	0.02289397	0.02752233	-0.2050073	-0.3398166	0.05746667	0.7909674	0.2499757	-0.3675954	-0.2057807	-0.1210684	-0.01893356	0.0877303	0.2187791	0.132055	0.04406727	0.1269877	0.057956	-0.07698951	-0.06632453	-0.7276708	-0.8923638	-0.9017711	-0.08147115	0.1512651	-0.8781929
-91.796875	-0.1810001	-0.1359889	-0.04691926	-0.1399463	0.1344249	0.08209305	-0.04793201	0.0885368	-0.01659565	0.029597	0.09902211	0.06764334	-0.5369431	-0.3663545	-0.6190664	0.525521	0.6267443	0.2639341	0.1341003	-0.02708373	0.1581941	-0.2193637	-0.4337733	-0.263791	0.2546591	0.2174961	0.2211568	0.06450341	-0.06946753	0.1281045	0.7187046	0.4782697	0.2287635	0.4351827	0.2573482	0.2824627	0.3502435	0.324533	0.3261584	0.1006481	0.06348449	0.1627476	0.01502171	0.1247232	0.1092383	0.03531285	-0.02902244	0.06334291	-0.1295056	-0.3233503	-0.1182956	-0.2610159	-0.2012659	-0.1239199	0.175669	0.1829278	0.09510998	0.2027568	0.1859293	0.03825851	0.2067297	0.09552664	0.1912387	0.0177984	-0.1329918	-0.03004396	0.02390987	0.1139235	0.3497166	-0.2509714	0.04319112	0.2415477	0.00560203	-0.04784373	0.1018333	-0.2412111	-0.2139645	0.003308581	0.04178275	-0.006860416	0.1347784	-0.1122048	-0.1625137	-0.02855902	0.3837437	0.3866906	0.3022168	0.1716313	-0.06548826	-0.4024242	-0.199109	0.1204065	-0.112362	0.04813109	0.3032606	0.2578616	-0.1673486	-0.08390291	-0.1561292	0.07156964	-0.1107915	-0.01065419	-0.1607556	-0.3288609	-0.3379688	-0.03283581	0.920663	0.3506561	-0.4160264	-0.2831653	-0.1705732	-0.01722632	0.06581566	0.203338	0.1886484	0.1553903	0.1913236	0.1358754	-0.007355818	0.003580026	-0.9491329	-1.172891	-1.171546	-0.1144829	0.08719027	-1.169858
-89.84375	-0.2524061	-0.2032687	-0.09440533	-0.1567784	0.07775863	0.01315327	-0.01726752	0.1212881	-0.009090252	0.07671417	0.110769	0.0971664	-0.4188329	-0.2555273	-0.4878569	0.5511813	0.5273102	0.1867921	0.1707197	-0.02795274	0.1063288	-0.2106005	-0.3766628	-0.2292924	0.3132698	0.2411138	0.2550884	0.07295798	-0.08578141	0.1251587	0.6885054	0.3587821	0.0701813	0.3936911	0.2302301	0.1873672	0.4358456	0.4294875	0.4140261	0.1614804	0.09469429	0.2028498	0.03279337	0.1209589	0.1083116	0.02503793	-0.04136549	0.05356412	-0.1544209	-0.2538967	-0.1921772	-0.1467008	-0.07449565	-0.05576222	0.2153774	0.2087959	0.09258309	0.3191265	0.175706	0.07530101	0.2205072	0.1320062	0.2034581	0.02802346	-0.1401982	-0.01866027	0.07354869	0.0851468	0.3062989	-0.173762	0.03526989	0.2147651	0.03480707	-0.006093058	0.07007438	-0.1978676	-0.1957337	0.02709784	0.03104841	-0.0128912	0.1277953	-0.1439291	-0.1748873	-0.04303956	0.3585038	0.3894748	0.2202947	0.1885935	-0.04801579	-0.4476344	-0.2458889	0.0934027	-0.1550263	0.121751	0.3703644	0.1938955	-0.1942751	-0.1113556	-0.200334	0.05805627	-0.08841065	-0.04082284	-0.2620042	-0.2761226	-0.2680587	0.01747656	1.076577	0.4671698	-0.4470457	-0.383471	-0.2518274	-0.02088738	0.05647494	0.1781331	0.1761243	0.1526755	0.1734268	0.1753321	0.02890774	0.01415457	-1.062585	-1.31191	-1.234929	-0.1677629	0.01181634	-1.275842
-87.890625	-0.2850835	-0.251132	-0.1261009	-0.1388184	0.05808767	-0.04803462	-0.0007872166	0.1301441	-0.01604308	0.1080383	0.1207865	0.1227335	-0.3147607	-0.1565085	-0.4139289	0.5893133	0.5095884	0.1016843	0.1987623	-0.04103165	0.08128642	-0.2243423	-0.3460552	-0.2054972	0.3496554	0.246866	0.2946022	0.06820201	-0.1261728	0.1130907	0.6334479	0.2350198	-0.07831637	0.356237	0.1920976	0.07664271	0.4828475	0.4680489	0.4540229	0.1886914	0.1170196	0.2128694	0.01474195	0.07253731	0.07452021	-0.01925529	-0.07591626	0.01534837	-0.2834795	-0.245924	-0.2857989	-0.1472475	-0.05836629	-0.03501708	0.2566155	0.2460555	0.1176503	0.4108226	0.1609917	0.1404492	0.2086741	0.1496992	0.1912533	0.03703736	-0.1319985	-0.004041598	0.1004352	0.1076652	0.2742297	0.001467111	0.1036841	0.2942857	0.04481147	0.01272057	-0.008342992	-0.1169254	-0.1695961	0.08078605	0.02832261	-0.006684353	0.1102542	-0.1498023	-0.1733082	-0.05292759	0.3738245	0.3864948	0.1411391	0.2136581	-0.07815319	-0.5086803	-0.2732275	0.04939313	-0.2235156	0.1726218	0.4075301	0.1259524	-0.2228426	-0.1265348	-0.2211675	0.03772589	-0.08144211	-0.04789449	-0.3363636	-0.1637448	-0.2591956	0.1140302	1.233093	0.5183104	-0.5761912	-0.6326156	-0.4672575	-0.08275981	0.02874725	0.06179192	0.1071734	0.04945211	0.08548294	0.1687567	0.03639836	-0.03520456	-1.169037	-1.459066	-1.26005	-0.2666699	-0.0648395	-1.268549
-85.9375	-0.2898922	-0.2711069	-0.1436388	-0.09653182	0.09050469	-0.09038804	-0.003558529	0.1170516	-0.02553725	0.109094	0.1287575	0.1340412	-0.2157483	-0.04874306	-0.3488148	0.6315628	0.5717276	0.09251508	0.2447077	-0.02920415	0.143326	-0.2510273	-0.3655851	-0.179212	0.3544279	0.239493	0.331288	0.05675793	-0.1786808	0.0997658	0.6222389	0.1864291	-0.1144223	0.319813	0.1284183	0.01505334	0.4869297	0.4410049	0.4517036	0.1866354	0.1301017	0.1848664	-0.03655011	-0.01407783	0.01701325	-0.09001932	-0.1303468	-0.04907834	-0.381046	-0.1366124	-0.223235	-0.1623017	-0.08690364	0.0448577	0.2579082	0.2632727	0.146215	0.4201763	0.1400325	0.1925272	0.1683004	0.1294869	0.1511627	0.03895916	-0.1021544	-0.003336484	0.03374441	0.13103	0.2390187	0.1572531	0.2002525	0.4360794	0.02824108	0.009653941	-0.08033121	-0.04628457	-0.1385763	0.1490943	0.03794313	0.009671375	0.09098733	-0.1154933	-0.1539305	-0.05178815	0.4637678	0.4267206	0.1489962	0.2770775	-0.1198605	-0.573778	-0.2678514	0.02782603	-0.2852729	0.2276145	0.4274916	0.1041588	-0.2471062	-0.1242466	-0.219641	0.01936779	-0.08081789	-0.03260517	-0.4365076	-0.1401715	-0.4106029	0.1640123	1.370655	0.4764935	-0.6656844	-0.7433929	-0.6009604	-0.09986433	0.05383332	0.001247969	0.08475447	0.01822469	0.05222125	0.1741857	0.06718995	-0.04429378	-1.23035	-1.530729	-1.240031	-0.3464572	-0.0801171	-1.140082
-83.984375	-0.282295	-0.2640311	-0.1531447	-0.0408664	0.1538673	-0.1047118	-0.01835292	0.101599	-0.03010222	0.09672988	0.1488327	0.1350453	-0.1571943	0.05443242	-0.2682404	0.6437457	0.6798202	0.201407	0.3135091	0.02414014	0.2893125	-0.2758688	-0.4266919	-0.1391741	0.3369714	0.2277924	0.3596803	0.04389822	-0.2308589	0.0904861	0.7196131	0.2566888	-0.01149049	0.3117737	0.06911408	0.04468402	0.4573816	0.3897546	0.4216949	0.1833545	0.1482373	0.1435072	-0.08989042	-0.09227642	-0.03677148	-0.146406	-0.1713487	-0.1041526	-0.3812135	0.1120353	0.008371376	-0.1027055	-0.06985579	0.207288	0.2149671	0.243264	0.1569039	0.3474547	0.1077589	0.1966312	0.1201087	0.08573885	0.1012593	0.03587182	-0.05784408	-0.02187247	-0.09108822	0.1356631	0.2035517	0.2378004	0.2484142	0.5620061	-0.01001342	0.001818637	-0.1052069	-0.01861524	-0.09026153	0.2175754	0.0540646	0.03589202	0.08080199	-0.04513441	-0.113639	-0.02948553	0.578939	0.493696	0.2522759	0.3356907	-0.1452747	-0.6239582	-0.2451742	0.04069673	-0.3041836	0.2809814	0.4390954	0.1314286	-0.2634725	-0.1122352	-0.2099673	0.007683365	-0.07854029	-0.01249124	-0.5559977	-0.2443429	-0.6854239	0.1620231	1.488304	0.4053754	-0.5815958	-0.4854974	-0.467994	0.0206884	0.1840272	0.1304667	0.08645244	0.03289625	0.04825121	0.1870121	0.1142526	-0.01771941	-1.482275	-1.922943	-1.526558	-0.5122753	-0.1440925	-1.181668
-82.03125	-0.2820756	-0.2592258	-0.1715891	-0.004436888	0.1845832	-0.1091183	-0.04469185	0.09232516	-0.03744848	0.0885059	0.185094	0.1316164	-0.1097104	0.1679679	-0.1575517	0.6580933	0.799394	0.4108805	0.380885	0.09336208	0.4424647	-0.2913789	-0.4912759	-0.08713511	0.3165373	0.2231392	0.3774898	0.03515411	-0.2671932	0.08946226	0.9149449	0.417975	0.1568989	0.3641085	0.06977674	0.154596	0.4086009	0.3527132	0.3755588	0.1962367	0.176267	0.121611	-0.122471	-0.1249745	-0.06861321	-0.1596172	-0.1731123	-0.1185277	-0.2732894	0.4146536	0.2948208	0.03497436	-0.00626327	0.3680371	0.1481901	0.186113	0.1376735	0.2378742	0.07520267	0.1547108	0.08931386	0.05049749	0.06596273	0.0337602	-0.01027475	-0.04716252	-0.1806743	0.1364053	0.1746589	0.2753728	0.2214613	0.6319598	-0.05486298	0.0009480339	-0.09177926	-0.02674893	-0.01660598	0.268172	0.06295376	0.06462053	0.08313305	0.02720336	-0.06261409	0.008341754	0.6378878	0.5405127	0.3747706	0.3444691	-0.1450032	-0.6278	-0.1995172	0.1048598	-0.2345295	0.318874	0.443136	0.1838541	-0.2679487	-0.1048553	-0.2048816	-0.003013377	-0.08158232	-0.01311248	-0.6469452	-0.3978473	-0.9204394	0.1792813	1.606795	0.4056302	-0.6754161	-0.4915529	-0.5426099	0.06466748	0.2291851	0.1131766	0.03888632	-0.01908311	-0.01052823	0.1720767	0.1385481	-0.01328295	-1.257041	-1.557202	-1.274947	-0.3859527	0.02102034	-0.846805
-80.078125	-0.2972273	-0.2791137	-0.2025742	-0.00875603	0.1436655	-0.1211	-0.07467165	0.09327468	-0.05610486	0.1003964	0.2292335	0.1341197	-0.09144963	0.2437847	-0.06503001	0.676175	0.8896619	0.6175734	0.4052126	0.1255532	0.5038823	-0.3029185	-0.5174865	-0.04047561	0.2999024	0.2269191	0.3778066	0.03282537	-0.2737552	0.09809356	1.103248	0.5693542	0.2836992	0.4576226	0.1357165	0.2707432	0.3441823	0.3265285	0.3147647	0.2095775	0.1975	0.1260439	-0.1321706	-0.115216	-0.08043061	-0.1411456	-0.1475641	-0.09525914	-0.170754	0.5716815	0.4267961	0.1540818	0.04238351	0.3965954	0.09077778	0.1110979	0.09588442	0.1482781	0.04980454	0.09367418	0.09470353	0.04998661	0.06313578	0.04402498	0.02383108	-0.06083452	-0.122744	0.1716936	0.1846987	0.339109	0.1134389	0.6338916	-0.08192463	0.01189693	-0.07732576	-0.02802194	0.06560434	0.2850637	0.05874918	0.0888359	0.09301716	0.06594037	-0.01753352	0.04306371	0.6154473	0.5413069	0.4228349	0.322234	-0.1411828	-0.5704675	-0.1439157	0.1773972	-0.106754	0.3293882	0.4294555	0.2095341	-0.2592462	-0.1030801	-0.2040889	-0.0203549	-0.09598976	-0.04122189	-0.6698633	-0.5003679	-0.962628	0.2770921	1.726719	0.5116467	-0.6799589	-0.3919482	-0.5224389	0.1571921	0.2971546	0.1725215	0.002002731	-0.03729177	-0.03879593	0.163759	0.161577	0.02031417	-1.353503	-1.752753	-1.444566	-0.4803263	-0.0008852333	-0.8774934
-78.125	-0.3112153	-0.3195174	-0.2258129	-0.05569616	0.03251611	-0.1462787	-0.1070103	0.08805505	-0.09016773	0.1158938	0.2496257	0.1359516	-0.06649493	0.2772228	-0.004353188	0.7126508	0.9361658	0.727214	0.3554018	0.07992453	0.4336117	-0.3221034	-0.4946051	-0.01960727	0.272306	0.2233264	0.3500813	0.03227181	-0.2506703	0.1105233	1.182433	0.6383025	0.3217684	0.5351561	0.2204411	0.3166662	0.2805765	0.2956351	0.2541065	0.200786	0.1904299	0.1400588	-0.1385469	-0.1020071	-0.08993804	-0.1338284	-0.1387366	-0.07097355	-0.1264638	0.502749	0.3434936	0.1529623	-0.01993973	0.2453173	0.05925631	0.03937706	0.04806526	0.1026612	0.0262857	0.0385168	0.1293213	0.08206924	0.08607478	0.06962126	0.03894223	-0.05314245	0.08107876	0.2521096	0.2393433	0.4547099	-0.03690883	0.5897644	-0.07953166	0.02901085	-0.09036385	0.009467166	0.1274854	0.2624926	0.05126081	0.1050923	0.1008182	0.06241074	0.008005744	0.05369646	0.5256565	0.4873556	0.3664543	0.2723989	-0.1597963	-0.4688358	-0.08964626	0.1906108	-0.004511882	0.3233665	0.3812056	0.1637335	-0.238519	-0.1079994	-0.2010278	-0.04941995	-0.1242675	-0.09053327	-0.6173844	-0.4415098	-0.74529	0.4701169	1.845372	0.7100309	-0.7391427	-0.4615552	-0.6043749	0.175543	0.3105077	0.1535813	-0.007838826	0.0004646845	-0.01695013	0.167487	0.191972	0.08379979	-1.233976	-1.613969	-1.321272	-0.489658	0.0535325	-0.7492335
-76.171875	-0.3023811	-0.3525463	-0.2140549	-0.1188056	-0.09415442	-0.1727099	-0.1349128	0.06278061	-0.1301984	0.1106205	0.2214017	0.1238177	-0.005294117	0.292603	0.04846644	0.7452415	0.9157973	0.7055754	0.2474198	-0.01636666	0.2873526	-0.3404692	-0.4322299	-0.0219027	0.218426	0.2001391	0.2925498	0.02922051	-0.2091574	0.1202818	1.113177	0.6045992	0.2995113	0.5289135	0.2441741	0.2552783	0.2514195	0.257076	0.2232624	0.1583844	0.1356772	0.1337611	-0.1543988	-0.1213039	-0.1105319	-0.1693744	-0.1811556	-0.08307291	-0.132451	0.2793323	0.1373325	0.01516479	-0.204475	-0.00970531	0.04916555	-0.01666977	0.01068663	0.0831145	-0.009872367	-0.00659611	0.1674082	0.1208467	0.1101563	0.1040411	0.04167076	-0.0313269	0.3084884	0.3386151	0.2999569	0.577176	-0.162049	0.5273471	-0.05657165	0.04364661	-0.1179502	0.07085577	0.1455195	0.2092448	0.05727343	0.1164555	0.1016696	0.03857032	0.01394925	0.0369653	0.4823601	0.4580109	0.2830596	0.2734418	-0.2075708	-0.3453749	-0.02613423	0.1712517	0.03894463	0.3424929	0.3133185	0.07974773	-0.2237189	-0.1241155	-0.1990584	-0.0878338	-0.1531504	-0.1416049	-0.5642354	-0.3066638	-0.4376168	0.668009	1.910433	0.8705966	-0.6987448	-0.4308314	-0.5832341	0.1916225	0.3458067	0.1826963	-0.0568478	-0.02332884	-0.04026216	0.1404755	0.2055297	0.1006469	-1.212324	-1.622766	-1.268509	-0.590269	0.07395378	-0.687496
-74.21875	-0.2692981	-0.3646165	-0.1685465	-0.1710575	-0.1879276	-0.1941593	-0.1457117	0.022431	-0.1526971	0.07431584	0.1481072	0.09191975	0.0676908	0.3213096	0.1243042	0.7319925	0.8368109	0.6136331	0.1395505	-0.08379433	0.1758159	-0.3307462	-0.3480873	-0.02015213	0.1411422	0.1585811	0.2235159	0.0211083	-0.1708494	0.1234626	0.9543773	0.5200872	0.2816429	0.4331645	0.1755813	0.1295812	0.2678249	0.2252209	0.2294476	0.1014106	0.05111342	0.09936206	-0.1670704	-0.1640246	-0.1307026	-0.2336115	-0.2658234	-0.132609	-0.0887428	0.09788659	0.01564062	-0.1700436	-0.4376514	-0.2216322	0.05097266	-0.06001331	-0.003513708	0.04688729	-0.07645015	-0.05979818	0.1880792	0.1400933	0.1158462	0.1341098	0.03636708	-0.01421482	0.4075062	0.3631473	0.3083249	0.6221321	-0.2243283	0.4482421	-0.02679848	0.06149178	-0.1145479	0.1223204	0.1265957	0.1525822	0.08116754	0.1270653	0.09760804	0.02241988	0.01581656	0.01240906	0.547371	0.5058157	0.2860575	0.3142036	-0.2678261	-0.2259986	0.01931137	0.1280103	-0.005534815	0.3883725	0.2362837	-0.01151028	-0.2182097	-0.1404444	-0.1925393	-0.116891	-0.1605637	-0.1702096	-0.5498052	-0.172899	-0.2351163	0.8000001	1.91454	0.9165068	-0.6295549	-0.3726981	-0.524157	0.1689201	0.3666826	0.1959581	-0.08171888	-0.01286788	-0.04618379	0.1240895	0.2400709	0.1206798	-1.079153	-1.417684	-1.043679	-0.6228215	0.1799548	-0.4779485
-72.265625	-0.1955019	-0.3291946	-0.09476282	-0.1700858	-0.2201046	-0.1907741	-0.1369234	-0.02329523	-0.148406	0.01764298	0.05899233	0.04116301	0.1104184	0.3856031	0.2256221	0.6522855	0.728492	0.5517733	0.08214941	-0.06668123	0.1661022	-0.2763014	-0.2573795	0.01087657	0.06764315	0.1209844	0.1732743	0.01199575	-0.1498093	0.1247558	0.7945141	0.4462101	0.2937342	0.3115801	0.06074549	0.03041661	0.3105691	0.2137374	0.2496485	0.05573509	-0.03151315	0.0514826	-0.1646521	-0.1984745	-0.1381822	-0.280496	-0.3388737	-0.1870942	0.09714045	0.1159916	0.1256731	-0.2804228	-0.6145744	-0.2888197	0.06952553	-0.0987151	0.01468163	-0.03256701	-0.1743887	-0.1376424	0.1905145	0.1335331	0.1047677	0.1485839	0.02205888	-0.01634726	0.3105861	0.2819276	0.227403	0.5498264	-0.220342	0.3508449	-0.002504362	0.08544077	-0.04822313	0.1335472	0.09612862	0.1144261	0.1078904	0.1360107	0.09623781	0.01944418	0.02757679	0.006178258	0.7097347	0.6360322	0.4272082	0.3510926	-0.3176068	-0.1281746	0.02263118	0.08052712	-0.106631	0.4217524	0.1566884	-0.08390827	-0.2248346	-0.1601254	-0.1929814	-0.1238666	-0.1337435	-0.1743202	-0.5794597	-0.1476023	-0.2728714	0.8267669	1.858502	0.8122475	-0.6845643	-0.5030422	-0.6038256	0.04437913	0.3050899	0.06835566	-0.1444753	-0.07909117	-0.1248706	0.09004626	0.2650377	0.08476046	-1.210655	-1.609456	-1.159629	-0.7713335	0.1924896	-0.472773
-70.3125	-0.1153177	-0.2775104	-0.03531451	-0.1289011	-0.2198095	-0.1717049	-0.1112585	-0.0587422	-0.1230345	-0.02942941	-0.008342351	-0.01179654	0.09220798	0.4638576	0.3006884	0.536769	0.6299791	0.5713485	0.0889433	0.02376226	0.2342585	-0.187501	-0.1696277	0.07043477	0.02966977	0.1109405	0.1661741	0.008452972	-0.1474614	0.1322985	0.6808644	0.4178079	0.3047439	0.2530041	0.003269679	0.0371029	0.344276	0.2262958	0.2557882	0.03356866	-0.09113715	0.01655527	-0.1360824	-0.186247	-0.1179669	-0.2690405	-0.3502813	-0.2047931	0.3603439	0.2820412	0.3924873	-0.2817166	-0.6799927	-0.241889	0.120423	-0.1341774	0.0657914	-0.1385864	-0.2810127	-0.2363338	0.1861666	0.1148207	0.09371214	0.143223	0.002299557	-0.03233025	0.08945511	0.1211904	0.08648581	0.3905192	-0.190847	0.246663	0.006649973	0.1052769	0.05898755	0.102177	0.08154311	0.09977908	0.117341	0.1391906	0.1021126	0.01549166	0.0513294	0.02987329	0.8670744	0.7800989	0.6493268	0.3033105	-0.3431013	-0.05912112	-0.01000491	0.06256265	-0.1950646	0.4056982	0.08369944	-0.118809	-0.2366484	-0.1809584	-0.2038473	-0.1075986	-0.07539418	-0.1630104	-0.631027	-0.2222562	-0.5077547	0.7870748	1.795018	0.6331305	-0.5991587	-0.3918634	-0.5035838	0.004703807	0.2908742	0.05026519	-0.1367369	-0.04575097	-0.1339474	0.1065101	0.3213632	0.09849238	-1.096263	-1.363356	-1.003807	-0.7087811	0.3225058	-0.2472306
-68.359375	-0.05874885	-0.2400922	-0.01584816	-0.08217724	-0.2292669	-0.1463158	-0.09006778	-0.08803204	-0.1010864	-0.05341433	-0.04275309	-0.05602421	0.03836603	0.5190479	0.3162939	0.4368966	0.559611	0.6457726	0.1237126	0.110446	0.2915305	-0.1037749	-0.1012567	0.125585	0.04142277	0.1370519	0.2012652	0.01574426	-0.1516071	0.1521	0.5637957	0.3848567	0.2618445	0.2651793	0.03925683	0.1389713	0.3265673	0.2363001	0.2243207	0.02050586	-0.1305895	0.001702876	-0.09190287	-0.1272667	-0.07578498	-0.2035678	-0.2947968	-0.1733506	0.5550172	0.4101345	0.6032331	-0.2378192	-0.6635095	-0.1978966	0.2063256	-0.157019	0.1372676	-0.2263466	-0.362845	-0.327958	0.1913814	0.1051993	0.1023637	0.125417	-0.01582247	-0.04309056	-0.09663772	-0.04340158	-0.03527434	0.2327514	-0.1868841	0.1562575	-0.0003142161	0.09796596	0.1416291	0.05797778	0.08237007	0.08833592	0.1061859	0.1408672	0.1148547	0.004809833	0.08187668	0.07705675	0.9116414	0.8529918	0.8313032	0.1364408	-0.3421331	-0.02151147	-0.04807641	0.07526043	-0.2193152	0.3301692	0.006639053	-0.1244149	-0.234563	-0.1912321	-0.2143976	-0.07875633	-0.006055216	-0.1476726	-0.6474638	-0.2948197	-0.7351837	0.7583882	1.761703	0.4945031	-0.6000002	-0.4333694	-0.5306409	-0.07057748	0.2324965	-0.05761011	-0.1264443	-0.02004914	-0.1405482	0.1277678	0.3634808	0.1121363	-1.01248	-1.137298	-0.9105467	-0.5958411	0.4126002	-0.09429327
-66.40625	-0.05568357	-0.2363034	-0.03199673	-0.0722793	-0.2578264	-0.1139854	-0.0928764	-0.1200723	-0.1036808	-0.05739632	-0.05444879	-0.08413725	0.03040552	0.5399038	0.2795043	0.4133243	0.5037158	0.6950287	0.1478145	0.1336428	0.2774803	-0.05393064	-0.06571863	0.1443475	0.08762179	0.1806755	0.2532385	0.02996228	-0.1524005	0.1785884	0.3984334	0.3147906	0.1708337	0.2926175	0.1338262	0.2631321	0.2490909	0.2228433	0.1687186	-2.897186e-05	-0.1621452	0.0006634636	-0.05659111	-0.05779787	-0.03521498	-0.12714	-0.2119056	-0.114677	0.5426782	0.3271421	0.5628751	-0.2514748	-0.6371542	-0.2579937	0.3107216	-0.1459104	0.2099577	-0.2457618	-0.400306	-0.38391	0.2098472	0.1158075	0.133762	0.1067442	-0.01951753	-0.03159297	-0.120599	-0.1394623	-0.06060161	0.1408119	-0.251405	0.08929747	-0.01407007	0.05690713	0.1411772	0.05317731	0.08797281	0.06705785	0.08541558	0.1449659	0.1291915	-0.01240205	0.1082851	0.1255013	0.8294873	0.8448036	0.89727	-0.07401713	-0.3013234	0.01021649	-0.06822515	0.08410922	-0.1854382	0.2207145	-0.0933748	-0.1227409	-0.2118871	-0.1807887	-0.2111052	-0.0507361	0.05562995	-0.1296172	-0.6299303	-0.2888593	-0.8082747	0.7806658	1.755805	0.4558464	-0.5024451	-0.336113	-0.4618751	-0.07704649	0.2273894	-0.07975714	-0.1066965	0.01871664	-0.1191309	0.148316	0.388976	0.1441359	-1.136628	-1.224826	-1.073001	-0.544005	0.3835979	-0.1901961
-64.453125	-0.1001633	-0.2483368	-0.05079527	-0.1075752	-0.275972	-0.0634563	-0.121547	-0.1544076	-0.1298364	-0.05676225	-0.05944711	-0.09551539	0.1076923	0.5232676	0.2421225	0.4455525	0.418283	0.6439703	0.1462069	0.09495858	0.213318	-0.03943054	-0.07198285	0.1209119	0.1382015	0.212386	0.2922791	0.04153016	-0.1493004	0.1981873	0.2009699	0.2073567	0.1020246	0.2533708	0.1813991	0.317451	0.1460856	0.1935794	0.1262378	-0.02405355	-0.186523	0.007689617	-0.0451625	-0.01755132	-0.01728158	-0.08393995	-0.1514392	-0.06238886	0.3368181	0.04773183	0.2700545	-0.3430326	-0.6249815	-0.4043184	0.389076	-0.08809096	0.2602632	-0.1844078	-0.3827024	-0.37886	0.2320462	0.1416983	0.1736698	0.09442644	-0.002857693	0.001434816	0.01062807	-0.1570953	0.009784208	0.1259919	-0.3529882	0.04339424	-0.03271519	-0.01297759	0.06055123	0.09145459	0.0778554	0.03428915	0.07827265	0.1629961	0.142505	-0.01606697	0.1261649	0.1603642	0.6799046	0.794044	0.8537964	-0.2381868	-0.2111158	0.06259856	-0.05408353	0.08781376	-0.1254803	0.1367436	-0.2140449	-0.1158574	-0.1812977	-0.1636353	-0.1973539	-0.03408896	0.0968588	-0.1112601	-0.6017528	-0.2256134	-0.7220122	0.8274814	1.706011	0.4679544	-0.3158295	-0.1113979	-0.2918448	-0.03553306	0.2595678	-0.03174372	-0.08371653	0.06662116	-0.07132916	0.1536432	0.3939652	0.1915743	-1.189874	-1.184195	-1.097569	-0.4305197	0.3643502	-0.2730687
-62.5	-0.1751424	-0.2491511	-0.04636078	-0.1695798	-0.2372541	0.01483728	-0.1630558	-0.1804856	-0.1633886	-0.06161816	-0.05508431	-0.09205984	0.289534	0.5376177	0.2883153	0.5059983	0.3097022	0.5240672	0.1467602	0.06566378	0.1815961	-0.02852513	-0.1028178	0.08878239	0.1676201	0.2122421	0.3038325	0.04113106	-0.1512096	0.1982045	0.06599388	0.116804	0.1328493	0.1234448	0.1086221	0.2643033	0.06391549	0.1711269	0.1200281	-0.03119003	-0.1839115	0.02655877	-0.05781139	-0.02248929	-0.03027014	-0.08522299	-0.1317004	-0.03485701	0.0733754	-0.2605251	-0.1056585	-0.4391054	-0.5933117	-0.5339991	0.4167395	0.01147662	0.2849428	-0.07475615	-0.3321376	-0.3163478	0.2443621	0.1678849	0.2018541	0.08616115	0.02671095	0.03762545	0.188425	-0.1415441	0.1099194	0.1512068	-0.4220876	0.01098289	-0.03899274	-0.06739987	-0.03143741	0.1680582	0.05925267	0.01832636	0.09618485	0.1990206	0.1586693	0.0004996502	0.132959	0.1796905	0.5706149	0.7755845	0.7758064	-0.2698668	-0.06597784	0.161923	-0.03018181	0.07823632	-0.09570702	0.1037283	-0.348701	-0.1126379	-0.1515675	-0.1366559	-0.1669021	-0.02019605	0.1259097	-0.07932744	-0.5245846	-0.09797243	-0.533218	0.8657736	1.552142	0.4669823	-0.2410319	-0.08304232	-0.2551724	-0.07621107	0.2054661	-0.107059	-0.1239812	0.01080166	-0.09107154	0.1006332	0.3477543	0.1813757	-1.094294	-0.9157369	-0.8857335	-0.2649166	0.3642074	-0.2500964
-60.546875	-0.2471104	-0.2132049	-0.01767443	-0.2140833	-0.1223888	0.1208514	-0.2007382	-0.1863562	-0.1847383	-0.07404172	-0.02636219	-0.07527523	0.4918618	0.5848526	0.4025953	0.5203189	0.1981345	0.3891267	0.1864253	0.1134827	0.241822	0.01157281	-0.1223104	0.09038712	0.1689607	0.1852069	0.2942509	0.02900296	-0.1626972	0.1787428	0.09095118	0.1105502	0.2779818	-0.03674197	-0.05669595	0.1496536	0.04083623	0.1782645	0.1504171	-0.007585631	-0.1414137	0.06519076	-0.0771919	-0.05287916	-0.06045127	-0.1074853	-0.1366613	-0.02700031	-0.07140018	-0.4027905	-0.3458476	-0.4321277	-0.4904374	-0.5457369	0.3962916	0.1188743	0.2937729	0.02117776	-0.280091	-0.2200813	0.2395875	0.1808482	0.2067027	0.0759342	0.04937076	0.0540134	0.2994627	-0.14574	0.1672413	0.1660008	-0.3966295	-0.005977565	-0.01786483	-0.07169621	-0.05275407	0.2435697	0.03866734	0.03350021	0.1338205	0.24664	0.1854433	0.02322216	0.1237902	0.1894928	0.5614636	0.8257322	0.7252692	-0.1588131	0.1285924	0.3111467	0.01283916	0.1201569	-0.07458632	0.1273748	-0.4651795	-0.08794825	-0.1297128	-0.1088352	-0.1322784	0.0001404402	0.1529159	-0.03783347	-0.4542081	-0.1181087	-0.4646221	0.7865686	1.243509	0.3039903	-0.1770572	-0.08895915	-0.2185196	-0.1403779	0.09079205	-0.219045	-0.118317	0.01716653	-0.06269079	0.05763866	0.3010756	0.1876752	-0.9465671	-0.5930614	-0.5973217	-0.1362112	0.3205423	-0.1751422
-58.59375	-0.2911463	-0.1426721	0.008261979	-0.209171	0.03386173	0.2333151	-0.2206206	-0.1720967	-0.1860771	-0.08746367	0.02741308	-0.0508136	0.6124259	0.6114813	0.5078396	0.4305375	0.1087706	0.2749	0.2706155	0.2340625	0.3654797	0.08093505	-0.1029132	0.1353505	0.1551254	0.1604554	0.2804807	0.01985941	-0.170919	0.1580729	0.2458383	0.1639977	0.4575191	-0.1639962	-0.2326116	0.03826015	0.0772291	0.2084183	0.1934553	0.03189946	-0.07761333	0.1146524	-0.09011865	-0.07893092	-0.08853736	-0.1201082	-0.1378382	-0.02522255	-0.04598041	-0.3330974	-0.3705136	-0.2952127	-0.3220572	-0.4343167	0.3578063	0.1897367	0.299999	0.04984921	-0.2590777	-0.1281269	0.2181986	0.1738777	0.1899299	0.05547975	0.04749647	0.04168211	0.307729	-0.1723946	0.1598873	0.1557615	-0.2579698	0.02120025	0.05243047	-0.008947264	0.02927569	0.3062823	0.01836596	0.06791004	0.1763289	0.2914385	0.2268703	0.02676336	0.09131045	0.19344	0.6252794	0.9152613	0.7038029	0.02764179	0.3516533	0.476031	0.06666122	0.2216577	-0.03961599	0.1639144	-0.5468582	-0.04192562	-0.1081032	-0.07815504	-0.1007828	0.0290911	0.1814353	0.001119474	-0.2865029	-0.162929	-0.4410793	0.6247135	0.8599699	0.05022445	0.03336466	0.1158894	-0.003653998	-0.1237622	0.0002917506	-0.2179433	-0.08693431	0.03945932	-0.0270769	0.02092666	0.2451229	0.1738674	-0.9194365	-0.5014662	-0.5057444	-0.1456561	0.1455632	-0.1922515
-56.640625	-0.3174985	-0.08387108	-0.008057775	-0.1785579	0.1478568	0.305899	-0.2286067	-0.1637557	-0.1786975	-0.1103193	0.07148296	-0.0379011	0.629876	0.5734815	0.5360631	0.2634172	0.04337623	0.1894508	0.3650932	0.3555659	0.4606862	0.1492074	-0.048245	0.1943355	0.1375436	0.1577757	0.2697626	0.02708662	-0.1592125	0.1553953	0.4160339	0.2265278	0.5790825	-0.220244	-0.3229828	-0.01178608	0.1527484	0.2374988	0.2285527	0.058108	-0.03741776	0.1471332	-0.08807193	-0.08115548	-0.09679633	-0.1119119	-0.1266357	-0.02455128	0.05674339	-0.186099	-0.2809286	-0.1291235	-0.1883193	-0.3111419	0.3289217	0.191902	0.3021987	-0.0005305606	-0.2823709	-0.07820165	0.1914868	0.1490056	0.1649998	0.02591493	0.01042035	0.005274144	0.2877719	-0.1686996	0.144357	0.1536893	-0.08013561	0.1021776	0.1591338	0.08323403	0.1631589	0.3394113	-0.01630954	0.07435497	0.2118587	0.3212708	0.2794355	-0.00511512	0.03545027	0.1901705	0.6889552	0.9803954	0.6727622	0.2048412	0.5622173	0.5968678	0.1043476	0.3176444	0.006473408	0.1573071	-0.5949597	0.003815717	-0.08292063	-0.05562083	-0.08713385	0.05229099	0.1993202	0.01441514	-0.1087173	-0.2788334	-0.4663738	0.3725946	0.4737387	-0.2480899	0.1256194	0.09040923	0.03630484	-0.1721824	-0.1500196	-0.3290112	-0.0378414	0.0653745	0.004920973	-0.004479072	0.1840011	0.1380501	-0.654344	-0.03374161	-0.1927881	-0.03176321	0.06391573	0.02725571
-54.6875	-0.3191663	-0.05141578	-0.06487808	-0.1360878	0.1762503	0.323598	-0.223342	-0.1745939	-0.1695689	-0.1423075	0.06683617	-0.0467174	0.6209481	0.4856403	0.5046618	0.1068294	-0.04000076	0.1125296	0.4202636	0.3968256	0.4521496	0.1814346	0.001979803	0.2204842	0.1229229	0.1783447	0.2570869	0.0556884	-0.117963	0.1776403	0.4679679	0.2400492	0.6053014	-0.2296176	-0.3097509	0.002829596	0.2408886	0.2423853	0.2509435	0.0480584	-0.06860078	0.1293127	-0.06432177	-0.05523852	-0.07509587	-0.09024897	-0.1151045	-0.02783881	0.04967249	-0.1687347	-0.2801026	-0.07967483	-0.1887093	-0.301741	0.3164732	0.1288331	0.2875688	-0.09525204	-0.3454825	-0.09256751	0.1682221	0.1142477	0.1438085	-0.007909099	-0.052392	-0.03672485	0.3235044	-0.09135874	0.1827868	0.1787682	0.0364353	0.2090861	0.2822216	0.1631363	0.2638975	0.3600915	-0.0812921	0.01443075	0.2371902	0.3316849	0.3301216	-0.06482033	-0.03233373	0.1752866	0.6967114	1.000162	0.6182144	0.3434903	0.7504399	0.6569792	0.168283	0.423194	0.1216638	0.122367	-0.6047652	0.0709328	-0.03992033	-0.02389536	-0.07847084	0.06565832	0.1997264	0.003835109	0.08685467	-0.2762573	-0.3620938	0.1360798	0.1737169	-0.4300663	0.2748948	0.1450957	0.1143085	-0.1666079	-0.224548	-0.3670711	0.01444752	0.08750078	0.03077323	-0.02038742	0.1246226	0.09752616	-0.639563	0.002341186	-0.2755828	-0.03073458	-0.09044766	-0.008329079
-52.734375	-0.3225359	-0.06848717	-0.1423866	-0.1293068	0.1156137	0.2793737	-0.1975419	-0.1971645	-0.1564351	-0.1754135	-0.003439594	-0.07758993	0.6265265	0.3728675	0.4527625	0.01993678	-0.1779296	0.01371059	0.4227858	0.3515081	0.3543455	0.1792387	0.01115054	0.1977824	0.1124016	0.204938	0.235269	0.09761046	-0.0566662	0.2118017	0.3766567	0.2041417	0.5904859	-0.2305771	-0.2607598	0.04293739	0.3280349	0.2201723	0.268159	0.006696815	-0.1789512	0.05217429	-0.01561237	-0.01139268	-0.02640708	-0.06799591	-0.1167385	-0.03733455	-0.1336309	-0.3395022	-0.448633	-0.2014277	-0.3445971	-0.4280162	0.3046622	0.03999316	0.2444721	-0.1791776	-0.4148799	-0.1622247	0.1575509	0.08262365	0.1358316	-0.0397125	-0.1260619	-0.06913972	0.4382648	0.04952098	0.2847747	0.2245428	0.0249199	0.2785161	0.3773968	0.1925958	0.2771756	0.3561127	-0.1779687	-0.1127743	0.2562686	0.3310332	0.3673219	-0.1248397	-0.09033797	0.1514651	0.6333864	0.9864448	0.5659468	0.4377667	0.9112591	0.6768974	0.2015756	0.4413054	0.2235253	0.06111456	-0.5923079	0.1258857	0.01109788	0.004228763	-0.07460892	0.06504846	0.17749	-0.02648488	0.2628225	-0.08474236	-0.08951661	-0.00249312	-0.02201298	-0.4353105	0.4273081	0.2315887	0.1905225	-0.1298444	-0.2268599	-0.3634479	0.02366983	0.05310772	0.01145555	-0.04950879	0.06132864	0.04734265	-0.6365374	-0.01891214	-0.398119	0.01283056	-0.1644624	-0.1137409
-50.78125	-0.3029737	-0.08434183	-0.1812048	-0.1338508	0.03697215	0.2197504	-0.1472362	-0.2057094	-0.1288376	-0.1945585	-0.1073125	-0.113666	0.7047105	0.3399865	0.4630261	0.05608125	-0.3480332	-0.07503765	0.3900421	0.2716561	0.2479254	0.1688533	-0.03087393	0.1452381	0.1024487	0.215398	0.2023911	0.1362635	0.001450203	0.2321178	0.2471628	0.1771277	0.6185448	-0.2260659	-0.2592265	0.06846076	0.3984065	0.1757187	0.2734222	-0.04430654	-0.3247452	-0.06147987	0.05206586	0.03447825	0.03527551	-0.05438069	-0.1377885	-0.05186011	-0.4112081	-0.5854384	-0.701941	-0.4115676	-0.5577971	-0.5922648	0.2739501	-0.02343093	0.1797697	-0.2108766	-0.445636	-0.2401621	0.1633349	0.06603188	0.1445511	-0.06556776	-0.1964167	-0.08555923	0.5614659	0.1830822	0.383296	0.2543198	-0.08679628	0.2631769	0.4319881	0.1865389	0.2285973	0.3262037	-0.2888229	-0.257383	0.2735812	0.3328265	0.3904247	-0.1596225	-0.1223278	0.1277929	0.543399	0.9908774	0.5569457	0.5337439	1.059193	0.7182624	0.1914424	0.3934272	0.2748467	0.01811275	-0.5452551	0.178703	0.05709976	0.02759106	-0.06708606	0.06240737	0.15159	-0.05141295	0.3600238	0.17182	0.2085955	-0.05390145	-0.1746694	-0.3596854	0.3728737	0.0400551	0.03765285	-0.1810654	-0.2679165	-0.5010877	0.05031001	0.07371341	0.03635136	-0.05600276	0.03054479	0.0565765	-0.3733062	0.32222	-0.1780616	0.2338129	-0.06225453	-0.05649321
-48.828125	-0.2624715	-0.06998622	-0.1558856	-0.1257613	-0.003072551	0.1776779	-0.07199194	-0.1734613	-0.07838364	-0.1811978	-0.1905265	-0.1335228	0.8008505	0.3981898	0.5202425	0.15378	-0.4952416	-0.1419629	0.3573429	0.2282429	0.2018681	0.184168	-0.08288945	0.1017716	0.09204438	0.2041556	0.1655281	0.1611743	0.0399675	0.2206312	0.1994675	0.1942673	0.7087895	-0.2010662	-0.3401523	0.05330092	0.4423721	0.116102	0.2561786	-0.09235464	-0.452009	-0.1757179	0.1119559	0.05964205	0.0834626	-0.05651971	-0.1745715	-0.07248246	-0.6058927	-0.7119502	-0.8574545	-0.553976	-0.685582	-0.6555043	0.2216389	-0.0333963	0.1183502	-0.1834387	-0.4090358	-0.2693675	0.1816183	0.0686181	0.1657718	-0.08410238	-0.2511085	-0.08877773	0.5935497	0.2375497	0.3902573	0.2368297	-0.1803406	0.1830553	0.4580286	0.1809267	0.19553	0.2577564	-0.395774	-0.3610528	0.2923745	0.3454018	0.4111164	-0.1648328	-0.1336339	0.1110438	0.4661137	1.033822	0.6046354	0.6367331	1.199093	0.822654	0.1264819	0.3068873	0.2347177	0.01297901	-0.4556448	0.226737	0.0903557	0.05060701	-0.05320945	0.07415572	0.1504683	-0.04867586	0.4043519	0.389571	0.3994345	-0.04394235	-0.3026656	-0.3042144	0.4800282	0.1824579	0.1334203	-0.0959741	-0.1983258	-0.4456716	0.03746452	0.05207871	0.03209427	-0.07533267	0.008145885	0.05988088	-0.2760807	0.3562587	-0.1009109	0.3389641	-0.03066066	-0.1622026
-46.875	-0.2103358	-0.01956554	-0.07837731	-0.08831114	0.002036365	0.1627037	0.01042304	-0.1077514	-0.01510972	-0.1416545	-0.2279747	-0.1369654	0.8160256	0.4628631	0.5499349	0.1708578	-0.5868708	-0.212674	0.3394088	0.2385609	0.2113204	0.2301175	-0.09100106	0.0833685	0.07732999	0.1776575	0.1292935	0.1702454	0.0583524	0.1776432	0.2414807	0.2185665	0.78635	-0.1638519	-0.4634577	-0.01009655	0.4568752	0.04611808	0.2151529	-0.1393514	-0.5291041	-0.2650111	0.1423834	0.05264789	0.1041472	-0.08015922	-0.2283463	-0.1068008	-0.6216817	-0.6463785	-0.8238454	-0.546142	-0.6590378	-0.5750794	0.1660358	-0.001216169	0.08592283	-0.1180733	-0.3212304	-0.2211833	0.1981599	0.07967561	0.1870797	-0.09643658	-0.2837207	-0.0864618	0.4903107	0.192314	0.2754936	0.180334	-0.151208	0.1112925	0.4829503	0.2037455	0.2415075	0.1448954	-0.4983442	-0.3975701	0.3127929	0.3637468	0.4394048	-0.1586513	-0.1461575	0.09829071	0.4258972	1.093884	0.6653743	0.7375475	1.318271	0.9692911	0.03475885	0.2383187	0.124769	0.04359668	-0.3247476	0.2805448	0.1151648	0.09225165	-0.02611998	0.1085649	0.1967636	-0.003231566	0.4511497	0.5022027	0.4498495	-0.04238542	-0.4025482	-0.3254762	0.5899581	0.3870713	0.2741133	0.02673864	-0.1032012	-0.3319106	0.01459692	0.01960924	0.02052932	-0.09091184	0.003490608	0.05238316	-0.1940491	0.3962182	0.008408695	0.4171455	-0.01876195	-0.2113505
-44.921875	-0.1722799	0.02865829	0.003066865	-0.03741718	0.005684028	0.1439596	0.08282156	-0.03792408	0.04377566	-0.09947351	-0.2400825	-0.142878	0.773517	0.4888377	0.5386918	0.06089913	-0.6229003	-0.2968376	0.3249858	0.2639777	0.2107832	0.2816339	-0.03137114	0.07538135	0.05820174	0.1501024	0.09286375	0.1704286	0.07104308	0.1211541	0.2397406	0.1532417	0.7427356	-0.1724599	-0.5612625	-0.1185664	0.4699428	-0.007437681	0.1854759	-0.183182	-0.5656019	-0.3211479	0.1455797	0.02533681	0.1057313	-0.1182822	-0.2953903	-0.1578479	-0.4957484	-0.4733377	-0.6524465	-0.4366273	-0.5405285	-0.4310226	0.1176602	0.02797327	0.08057357	-0.05705507	-0.2322039	-0.1177105	0.1931243	0.07737136	0.1905342	-0.1103674	-0.2956916	-0.0876875	0.3051586	0.09242349	0.09811233	0.119018	0.005326193	0.1123401	0.5264699	0.2528072	0.3654722	-0.0001938176	-0.6092636	-0.3881929	0.3392762	0.3769276	0.4753758	-0.1610283	-0.1847655	0.07769034	0.431145	1.144102	0.7038254	0.8220932	1.403496	1.101543	-0.03124603	0.2095461	0.004734902	0.08512057	-0.1827591	0.3324416	0.1293976	0.1454118	-0.0004440663	0.148423	0.2768637	0.06691577	0.4743573	0.4403979	0.376221	-0.1363917	-0.4693221	-0.4255188	0.5130284	0.3258709	0.2073341	0.06140852	-0.06319942	-0.3194109	0.04102888	0.06182772	0.06005481	-0.06730708	0.03882108	0.06853163	-0.2198811	0.3534289	0.001309752	0.4439979	-0.02991901	-0.2336282
-42.96875	-0.1275463	0.06521456	0.06558391	0.02943636	-0.02157357	0.1056857	0.1425418	0.009046906	0.08914922	-0.07922611	-0.2710071	-0.1737113	0.7236798	0.4467067	0.5195338	-0.1581212	-0.6599768	-0.4015139	0.3023897	0.2623104	0.1534238	0.3096599	0.06634066	0.05675087	0.03738527	0.1267791	0.05139117	0.1673943	0.08858135	0.06849398	0.05004995	-0.0524642	0.5489745	-0.281556	-0.5930851	-0.2516307	0.4985105	-0.02794162	0.1942258	-0.213202	-0.5862526	-0.3547068	0.1522831	0.01248812	0.1149727	-0.1417256	-0.3505719	-0.2090354	-0.4329253	-0.4159455	-0.5520146	-0.3710625	-0.4487756	-0.3737123	0.0830902	0.0139007	0.08175351	-0.02909463	-0.2118625	-0.03064257	0.1597044	0.04439648	0.1667323	-0.1334315	-0.3068406	-0.1039117	0.149423	-0.0005097432	-0.0380022	0.08532153	0.1780262	0.1783951	0.5896068	0.3116058	0.5057829	-0.1299597	-0.7271658	-0.3713171	0.3696491	0.3717833	0.5046825	-0.1866807	-0.2551164	0.03791571	0.4798242	1.169427	0.7200103	0.8871121	1.439718	1.155701	-0.02054485	0.2457853	-0.0397612	0.1254214	-0.05801083	0.3902225	0.1521247	0.2301018	0.03825989	0.1849246	0.3613833	0.1510854	0.5385429	0.4156264	0.4094724	-0.2859347	-0.4820804	-0.4453824	0.4180944	0.2577399	0.1229224	0.09810074	0.008439037	-0.2598503	0.05943338	0.0880459	0.07543913	-0.03846501	0.07527138	0.06319753	-0.1458886	0.5669052	0.08823019	0.5728571	0.09254754	-0.06453643
-41.015625	-0.06522219	0.0764107	0.09389885	0.1038504	-0.0641423	0.04149589	0.1976982	0.03199921	0.1231493	-0.0805158	-0.3272061	-0.2255764	0.7755592	0.4270969	0.5746875	-0.3163211	-0.7022983	-0.4575499	0.2885857	0.2413518	0.06887376	0.3113502	0.1430642	0.02981558	0.02833886	0.1102178	0.009452448	0.1647913	0.1084616	0.02638317	-0.3178903	-0.3184354	0.3067139	-0.4688025	-0.5698805	-0.3629509	0.5682053	0.009208843	0.2638268	-0.205797	-0.6085198	-0.3699192	0.1975298	0.05003272	0.1536116	-0.1100525	-0.3477044	-0.2241372	-0.5747976	-0.5916656	-0.6546229	-0.4404556	-0.4506742	-0.4726136	0.05665574	-0.0505473	0.06551062	-0.04749081	-0.2907605	-0.02873831	0.1013348	-0.02020265	0.1161638	-0.1753993	-0.3343406	-0.1390657	0.1096443	-0.05839369	-0.06002444	0.06711679	0.2028237	0.2207637	0.6517073	0.3638776	0.5992814	-0.2072772	-0.8279786	-0.3677434	0.3972151	0.3464967	0.5106071	-0.2298996	-0.3388634	-0.0207044	0.559586	1.180789	0.7503935	0.9376718	1.427995	1.115989	0.03774437	0.2866822	-0.009065872	0.1408012	0.02169215	0.4255168	0.1676104	0.2982222	0.06686503	0.1926549	0.4022383	0.2108551	0.5999166	0.507055	0.6162792	-0.4489499	-0.4824448	-0.3155663	0.5604482	0.5900304	0.3445888	0.2714302	0.2131454	0.05541381	0.04643012	0.073598	0.04617942	-0.01959712	0.08672505	0.03852406	-0.05510966	0.8195993	0.155936	0.7240884	0.3016857	0.1317619
-39.0625	0.02912822	0.08841766	0.1075592	0.1983733	-0.05062367	-0.00848373	0.2586633	0.05910841	0.1545174	-0.06846859	-0.3545853	-0.2586212	0.9214906	0.4914511	0.7126613	-0.2994377	-0.7241007	-0.4094578	0.3166258	0.2444693	0.03753432	0.3054155	0.1528814	0.01636188	0.04711935	0.1023196	-0.01532463	0.1627757	0.115212	-0.01135411	-0.6771344	-0.4890174	0.1670989	-0.6385798	-0.5471417	-0.4083363	0.6138927	0.04972208	0.3247611	-0.1726931	-0.6223475	-0.3824678	0.2820976	0.1425088	0.2140197	-0.004187075	-0.2494694	-0.1725349	-0.9023656	-0.9191381	-0.91908	-0.6032732	-0.4938459	-0.6543673	0.02893295	-0.1350788	0.02590548	-0.105088	-0.4268646	-0.122779	0.03771064	-0.09768208	0.05483929	-0.2377896	-0.3894345	-0.1914739	0.1730583	-0.1062944	0.01309792	0.01388729	0.02288853	0.1569102	0.6855868	0.4024164	0.626873	-0.2355478	-0.8829321	-0.3701914	0.4086783	0.3103239	0.4884878	-0.2743735	-0.4032448	-0.08330432	0.6478869	1.193892	0.8210307	0.9761348	1.377952	1.018234	0.08629819	0.3054689	0.05849935	0.1333768	0.0694546	0.4322019	0.1804715	0.3422677	0.09545222	0.1763328	0.3833234	0.242473	0.5555245	0.6047754	0.8397605	-0.6037472	-0.5371412	-0.1149261	0.4312784	0.4648761	0.2318604	0.2678757	0.2582672	0.1063578	0.09375559	0.1783071	0.1000552	0.04066836	0.1040024	0.09455527	0.1002072	1.098461	0.2698397	0.8691978	0.5517522	0.3269852
-37.109375	0.1375136	0.1156038	0.1192236	0.307658	0.05679672	-0.01310202	0.3168788	0.1122166	0.1829754	-0.00760087	-0.28708	-0.228721	1.068709	0.6533802	0.8593756	-0.08499574	-0.6443649	-0.2290663	0.4059325	0.30453	0.1094061	0.3145914	0.1035382	0.03335008	0.1002982	0.1075583	-0.003913112	0.1609829	0.09549241	-0.05386009	-0.7822964	-0.445418	0.2222645	-0.6880405	-0.5754034	-0.3755908	0.5814101	0.04111048	0.3154649	-0.1524123	-0.6274973	-0.4054817	0.3630972	0.2518156	0.2601736	0.1461323	-0.07093317	-0.06151874	-1.23308	-1.173624	-1.153527	-0.722121	-0.4609883	-0.7635543	-0.00615588	-0.1989696	-0.0216271	-0.1837842	-0.5297355	-0.2528306	-0.01667085	-0.1645964	-0.0007421231	-0.3126265	-0.4527373	-0.2481863	0.2753236	-0.1688172	0.1146433	-0.1030166	-0.2938485	-0.02166514	0.6917306	0.4395326	0.6193564	-0.2367981	-0.8807206	-0.3566914	0.3953545	0.2772893	0.4511918	-0.30286	-0.4257488	-0.1313473	0.6976808	1.193745	0.9013786	0.9706672	1.308116	0.9180091	0.07384562	0.2862456	0.09656494	0.1121013	0.1082555	0.4077076	0.1823026	0.3439927	0.1159335	0.1422574	0.3179146	0.2466734	0.4911337	0.7562687	1.020538	-0.6491533	-0.6122614	0.1116128	0.4282748	0.5071324	0.2676496	0.3202956	0.2880461	0.2018163	0.06118595	0.162175	0.06415202	0.05376294	0.05896298	0.09418301	0.1888095	1.154579	0.3100288	0.8881356	0.6881991	0.3961553
-35.15625	0.2107632	0.1508806	0.1242503	0.4045458	0.2239331	0.03068198	0.3451367	0.1791695	0.1952765	0.09910382	-0.1222718	-0.13012	1.146597	0.8731371	0.9383176	0.2234912	-0.457158	0.02644623	0.5264531	0.3928786	0.2400412	0.3396842	0.04644192	0.06061511	0.1721858	0.1255154	0.04452102	0.1584499	0.05135005	-0.1023908	-0.5516239	-0.2293751	0.4054329	-0.6133343	-0.6636068	-0.3120693	0.4090329	-0.07824755	0.175717	-0.1954288	-0.6276336	-0.4606831	0.3801414	0.3172771	0.2517574	0.2700438	0.1108358	0.05545019	-1.362633	-1.167137	-1.171636	-0.6895467	-0.2905354	-0.6971459	-0.05104646	-0.2251313	-0.05825011	-0.2613735	-0.5270085	-0.3367114	-0.06476104	-0.2123481	-0.04774221	-0.3847806	-0.4840531	-0.2924312	0.3114827	-0.2529015	0.1576876	-0.2750666	-0.5463619	-0.2223713	0.6815751	0.4774985	0.6237351	-0.2663467	-0.8490959	-0.3194334	0.3592556	0.2566638	0.4187274	-0.3065921	-0.4038689	-0.1516279	0.7013523	1.176877	0.9390631	0.9201318	1.234864	0.8646162	0.01571386	0.2641363	0.08784619	0.09841011	0.1536732	0.3738218	0.1867084	0.3349495	0.1437501	0.1084059	0.2468256	0.2497053	0.4071566	0.8414563	1.007887	-0.588834	-0.6459923	0.255172	0.4872741	0.5955237	0.3508581	0.3888532	0.2613719	0.2621141	0.0313351	0.1345589	0.03194245	0.06217423	0.001412397	0.08360936	0.2991878	1.205273	0.4280645	0.8543837	0.7237675	0.5024302
-33.203125	0.2103113	0.166274	0.1108166	0.4361695	0.3309341	0.07758303	0.3243515	0.2238336	0.1792546	0.2048845	0.05748712	-0.009025412	1.079669	1.019702	0.8991776	0.4045563	-0.2585937	0.220691	0.6110026	0.4394159	0.3184336	0.3684243	0.04193898	0.05369651	0.2288356	0.1470377	0.1009831	0.1564375	0.006587281	-0.147919	-0.1431282	-0.007298416	0.5524831	-0.5070607	-0.7610098	-0.2895363	0.1506024	-0.2670938	-0.04290612	-0.296655	-0.6355893	-0.54066	0.3227363	0.316018	0.1919303	0.3115117	0.2058428	0.119747	-1.229493	-0.9088353	-0.9477422	-0.5262265	-0.04387266	-0.4965628	-0.1167057	-0.2332046	-0.08646439	-0.3258035	-0.4108464	-0.3253344	-0.1211709	-0.2509418	-0.09533798	-0.4386979	-0.4527166	-0.3144374	0.2499552	-0.3280228	0.1199731	-0.437039	-0.6053356	-0.3476815	0.6770105	0.511458	0.659714	-0.3492532	-0.8371152	-0.2751524	0.3185954	0.2497752	0.4070839	-0.2898574	-0.3605043	-0.1456418	0.655516	1.135926	0.8890745	0.8293964	1.187146	0.8802193	-0.02748287	0.2645461	0.05555831	0.1035157	0.1817661	0.3385206	0.2005473	0.3332963	0.1801869	0.07683351	0.1888186	0.2589175	0.3304517	0.7921914	0.7905115	-0.4658461	-0.5850724	0.268273	0.5415581	0.6322275	0.3916404	0.4365012	0.1803185	0.2560918	0.08196898	0.195598	0.08317674	0.1064533	-0.01993869	0.1015823	0.4732672	1.417283	0.6891491	0.8665619	0.7272318	0.7545449
